F3,F4,C3,C4,P3,P4,Cz,Pz,Accel_x,Accel_y,Accel_z,Sample
-1.682565198279917240e-11,5.684341886080801487e-12,1.546140993013978004e-11,1.455191522836685181e-11,-1.068656274583190680e-11,-2.410160959698259830e-11,5.729816621169447899e-11,0.000000000000000000e+00,9.446745872497558594e+00,-7.649186849594116211e-01,-1.568083524703979492e+00,0.000000000000000000e+00
-3.679185760372183722e+02,9.229593914663701071e+01,-3.399518714010030180e+02,-3.948869305553580489e+02,-4.123631551345238222e+01,-9.154978498220793881e+01,-9.962914361422608636e+02,-6.386460641281576045e+02,9.446745872497558594e+00,-7.649186849594116211e-01,-1.568083524703979492e+00,1.000000000000000000e+00
-5.768097965391662001e+02,7.498181650147125765e+01,-7.670336279156351793e+02,-8.343301991110199651e+02,-1.353262882793553672e+02,-3.787860160070872553e+02,-1.626516145398272783e+03,-1.015851345776997732e+03,9.446745872497558594e+00,-7.649186849594116211e-01,-1.568083524703979492e+00,2.000000000000000000e+00
-5.935451902355398488e+02,-1.022590355733927936e+01,-1.309639859040924421e+03,-1.243102769510558801e+03,-1.537474461667259220e+02,-7.053329642975563729e+02,-2.170390807946419955e+03,-1.195507514226414060e+03,9.446745872497558594e+00,-7.649186849594116211e-01,-1.568083524703979492e+00,3.000000000000000000e+00
-6.139563662583054793e+02,-1.579619340574664648e+02,-1.874161565870764434e+03,-1.578908526744029587e+03,-7.239286302335608525e+01,-9.389866612992173032e+02,-2.982394591258137552e+03,-1.389197056463422086e+03,9.446745872497558594e+00,-7.649186849594116211e-01,-1.568083524703979492e+00,4.000000000000000000e+00
-8.242188382282079147e+02,-4.472617837664503213e+02,-2.284592787649527963e+03,-1.894597374790252616e+03,-1.120941135291168393e+02,-1.215072841846393203e+03,-3.839996686212094573e+03,-1.613131002411570080e+03,9.446745872497558594e+00,-7.649186849594116211e-01,-1.568083524703979492e+00,5.000000000000000000e+00
-1.056450517221716382e+03,-7.263151126194215976e+02,-2.451727740083546450e+03,-2.128137356676189938e+03,-2.920824775201672310e+02,-1.456243085706409147e+03,-4.501376164130522739e+03,-1.746223644798669966e+03,9.446745872497558594e+00,-7.649186849594116211e-01,-1.568083524703979492e+00,6.000000000000000000e+00
-1.130271270857947457e+03,-7.868934433909164454e+02,-2.525747233589947427e+03,-2.176723341673443883e+03,-4.131636249672312715e+02,-1.411427380234451448e+03,-5.087111258440009806e+03,-1.873605790749476000e+03,9.446745872497558594e+00,-7.649186849594116211e-01,-1.568083524703979492e+00,7.000000000000000000e+00
-1.279088324955650023e+03,-7.898452926446059337e+02,-2.747656477297492529e+03,-2.184771784090105939e+03,-5.142150962386160700e+02,-1.250680473828431332e+03,-5.591649363312584683e+03,-2.214122847901532168e+03,9.446745872497558594e+00,-7.649186849594116211e-01,-1.568083524703979492e+00,8.000000000000000000e+00
-1.648920797808687894e+03,-9.342071929289697891e+02,-3.100869211066333264e+03,-2.364773716359772152e+03,-7.253646735879683547e+02,-1.310205532441048035e+03,-5.869492840569885630e+03,-2.663029987124442414e+03,9.446745872497558594e+00,-7.649186849594116211e-01,-1.568083524703979492e+00,9.000000000000000000e+00
-1.777774448481513446e+03,-9.335225319032965672e+02,-3.288602324587109251e+03,-2.575578688536251775e+03,-7.760038583712120044e+02,-1.343726025681775354e+03,-6.283279769067495181e+03,-2.810735349031128408e+03,9.446745872497558594e+00,-7.649186849594116211e-01,-1.568083524703979492e+00,1.000000000000000000e+01
-1.416879202935606827e+03,-6.683943705440053691e+02,-3.203382606836350988e+03,-2.572116378857153904e+03,-5.466080817623918620e+02,-1.096276042888236134e+03,-7.191989874223612787e+03,-2.619151949773112847e+03,9.446745872497558594e+00,-7.649186849594116211e-01,-1.568083524703979492e+00,1.100000000000000000e+01
-1.228946981300417974e+03,-7.547934965272369254e+02,-3.147007111503146007e+03,-2.491734111134243904e+03,-6.139868575462428453e+02,-1.103958360658815309e+03,-8.097498144539295026e+03,-2.592403211269579060e+03,9.446745872497558594e+00,-7.649186849594116211e-01,-1.568083524703979492e+00,1.200000000000000000e+01
-1.647821476246753264e+03,-1.377077232971951162e+03,-3.328395201961595831e+03,-2.537848351176207871e+03,-1.143653746989534739e+03,-1.627463132426151105e+03,-8.672692288574937265e+03,-2.946662579291471047e+03,9.446745872497558594e+00,-7.649186849594116211e-01,-1.568083524703979492e+00,1.300000000000000000e+01
-1.972147026707959412e+03,-1.634837375497918629e+03,-3.510601254761559176e+03,-2.559213698630393083e+03,-1.307436138183322782e+03,-1.844823135155819273e+03,-9.518768551913290139e+03,-3.215539927618684487e+03,9.446745872497558594e+00,-7.649186849594116211e-01,-1.568083524703979492e+00,1.400000000000000000e+01
-1.693589050091391982e+03,-1.241221992956250688e+03,-3.483426181084533255e+03,-2.487676237274446976e+03,-9.680252176475623855e+02,-1.475190577063405271e+03,-1.048810737549856640e+04,-3.097619464993362271e+03,9.446745872497558594e+00,-7.649186849594116211e-01,-1.568083524703979492e+00,1.500000000000000000e+01
-1.410014699674395160e+03,-1.182634376377212220e+03,-3.412371093498014034e+03,-2.550179754793587563e+03,-1.098055942781001704e+03,-1.466119851862434416e+03,-1.048322131233607979e+04,-2.951666095556020537e+03,9.446745872497558594e+00,-7.649186849594116211e-01,-1.568083524703979492e+00,1.600000000000000000e+01
-1.404940674041441525e+03,-1.602511718410427420e+03,-3.403114959264909430e+03,-2.614971406468938312e+03,-1.518344354089417266e+03,-1.861854743829885365e+03,-1.017052479138152194e+04,-3.020408381910591743e+03,9.446745872497558594e+00,-7.649186849594116211e-01,-1.568083524703979492e+00,1.700000000000000000e+01
-1.133819030142128668e+03,-1.488937605679985609e+03,-3.337158109926885118e+03,-2.324660992743691168e+03,-1.057367099672093900e+03,-1.606024789033406250e+03,-1.132789968513165331e+04,-3.066932996548496703e+03,9.446745872497558594e+00,-7.649186849594116211e-01,-1.568083524703979492e+00,1.800000000000000000e+01
-8.707476178785564116e+02,-1.197201706197530712e+03,-3.338986749949579462e+03,-2.087195559352295277e+03,-5.269353945096804637e+02,-1.229972051310868892e+03,-1.279535010785792838e+04,-3.095830477810867706e+03,9.446745872497558594e+00,-7.649186849594116211e-01,-1.568083524703979492e+00,1.900000000000000000e+01
-1.405487671145493323e+03,-1.856704694127922721e+03,-3.569604385422839187e+03,-2.464565834480876219e+03,-1.450582789033781410e+03,-2.009727460649449085e+03,-1.231777979452227373e+04,-3.304384196634281579e+03,9.446745872497558594e+00,-7.649186849594116211e-01,-1.568083524703979492e+00,2.000000000000000000e+01
-1.762211820999681095e+03,-2.158179923059278735e+03,-3.564741830998178102e+03,-2.672643332502440444e+03,-1.982534652682883461e+03,-2.389258389156862904e+03,-1.213185702090250197e+04,-3.250316659262786743e+03,9.446745872497558594e+00,-7.649186849594116211e-01,-1.568083524703979492e+00,2.100000000000000000e+01
-5.766061550200633974e+02,-5.179348410093955408e+02,-2.977485975023870196e+03,-1.822934204505139860e+03,8.406154046311212369e+01,-5.207003761545303178e+02,-1.515013064217419560e+04,-2.590635781741667415e+03,9.446745872497558594e+00,-7.649186849594116211e-01,-1.568083524703979492e+00,2.200000000000000000e+01
1.768090440938622123e+02,-1.124740059153858738e+02,-2.814652398292836097e+03,-1.389257071643591871e+03,8.465949867569883054e+02,5.061704454176037871e+01,-1.643531840669688245e+04,-2.509854539464355184e+03,9.446745872497558594e+00,-7.649186849594116211e-01,-1.568083524703979492e+00,2.300000000000000000e+01
-2.871255541261006783e+03,-5.473007513478482906e+03,-4.304008137964592606e+03,-3.594585308146341049e+03,-5.482587754657432015e+03,-5.800813369690432410e+03,-8.583311094206401322e+03,-4.406889691919139295e+03,9.446745872497558594e+00,-7.649186849594116211e-01,-1.568083524703979492e+00,2.400000000000000000e+01
-8.589357144628298556e+03,-1.419687437221783330e+04,-6.661261745346417229e+03,-7.460210382586906235e+03,-1.614338971013160517e+04,-1.547008168053678310e+04,4.774074052377922271e+03,-7.288856124362598166e+03,9.446745872497558594e+00,-7.266727685928344727e-01,-1.644575238227844238e+00,2.500000000000000000e+01
-1.208089345618824882e+04,-1.904590078195460592e+04,-7.852824044543302989e+03,-9.633910196992626879e+03,-2.217576209237922376e+04,-2.087461077660740557e+04,1.199461903437041292e+04,-8.741804442942910100e+03,9.446745872497558594e+00,-7.266727685928344727e-01,-1.644575238227844238e+00,2.600000000000000000e+01
-1.163015945406413812e+04,-1.829640144312609118e+04,-7.495627221405748060e+03,-9.173901877962027356e+03,-2.120003951425991909e+04,-2.000134303706238279e+04,1.014447847955011457e+04,-8.379288184473552974e+03,9.446745872497558594e+00,-7.266727685928344727e-01,-1.644575238227844238e+00,2.700000000000000000e+01
-1.027537017186818048e+04,-1.691414485463868914e+04,-7.061075810045369508e+03,-8.323616332300507565e+03,-1.924062767525307208e+04,-1.835865921677628285e+04,7.214217799938352073e+03,-7.969552378703215254e+03,9.446745872497558594e+00,-7.266727685928344727e-01,-1.644575238227844238e+00,2.800000000000000000e+01
-1.028441373299020961e+04,-1.766392494593779702e+04,-7.304663566467558667e+03,-8.531251371498665321e+03,-1.997835852175831678e+04,-1.913400075477741848e+04,7.828219781883723044e+03,-8.319699572444551450e+03,9.446745872497558594e+00,-7.266727685928344727e-01,-1.644575238227844238e+00,2.900000000000000000e+01
-1.065814551414260859e+04,-1.825853799768446697e+04,-7.484579644711275250e+03,-8.869939443226952790e+03,-2.084545704515247053e+04,-1.985523818731553547e+04,8.321600660361196788e+03,-8.485735117005548091e+03,9.446745872497558594e+00,-7.266727685928344727e-01,-1.644575238227844238e+00,3.000000000000000000e+01
-1.039040658161842839e+04,-1.736913690258650604e+04,-7.145320406840271971e+03,-8.554248927921727955e+03,-1.999571839439311225e+04,-1.894154123084506136e+04,6.380955314513544181e+03,-8.022220524792084689e+03,9.446745872497558594e+00,-7.266727685928344727e-01,-1.644575238227844238e+00,3.100000000000000000e+01
-1.011595808285578823e+04,-1.683404809817596833e+04,-6.843955510493808106e+03,-8.188241744550843578e+03,-1.929834271027044451e+04,-1.830022551605727131e+04,4.876424105017711554e+03,-7.719529114975443918e+03,9.446745872497558594e+00,-7.266727685928344727e-01,-1.644575238227844238e+00,3.200000000000000000e+01
-1.014124063128694252e+04,-1.745826618654801496e+04,-6.938044810876815973e+03,-8.212156260920857676e+03,-1.976390563771676898e+04,-1.886628349844518743e+04,5.116759584262367753e+03,-7.961528395517110766e+03,9.446745872497558594e+00,-7.266727685928344727e-01,-1.644575238227844238e+00,3.300000000000000000e+01
-9.921504653789390431e+03,-1.777275412593468354e+04,-7.060081959717434074e+03,-8.236872467633076667e+03,-1.999798158289651110e+04,-1.916914199413266761e+04,4.829130520142683963e+03,-8.155543962018808998e+03,9.446745872497558594e+00,-7.266727685928344727e-01,-1.644575238227844238e+00,3.400000000000000000e+01
-9.559697216001226479e+03,-1.719862203771551503e+04,-6.929381962666067921e+03,-8.072368273958241844e+03,-1.948761346941073498e+04,-1.861287834962821216e+04,3.348755183093391224e+03,-7.929747901491383345e+03,9.446745872497558594e+00,-7.266727685928344727e-01,-1.644575238227844238e+00,3.500000000000000000e+01
-9.615140752695608171e+03,-1.675800258891237900e+04,-6.715780105740129329e+03,-7.952881349426417728e+03,-1.920083220876569249e+04,-1.820246550141338957e+04,2.321919877207319587e+03,-7.617935618592939136e+03,9.446745872497558594e+00,-7.266727685928344727e-01,-1.644575238227844238e+00,3.600000000000000000e+01
-9.812627491676110367e+03,-1.687627929600829157e+04,-6.593970555995349059e+03,-7.873001106580712076e+03,-1.930753758228568040e+04,-1.828838986170663338e+04,1.839700972270629336e+03,-7.536584812150169455e+03,9.446745872497558594e+00,-7.266727685928344727e-01,-1.644575238227844238e+00,3.700000000000000000e+01
-9.559687610766906801e+03,-1.701566914498908955e+04,-6.559026323365427743e+03,-7.690084673783638209e+03,-1.920656160943300347e+04,-1.832310091885034126e+04,8.879157083589329886e+02,-7.619513496669522283e+03,9.446745872497558594e+00,-7.266727685928344727e-01,-1.644575238227844238e+00,3.800000000000000000e+01
-9.108932740729425859e+03,-1.693925323436253530e+04,-6.571491600900596495e+03,-7.548371098781729415e+03,-1.897735111795611738e+04,-1.819289918269324698e+04,-7.563757902679299150e+00,-7.682103586289898885e+03,9.446745872497558594e+00,-7.266727685928344727e-01,-1.644575238227844238e+00,3.900000000000000000e+01
-9.033279803871011609e+03,-1.676668338264359045e+04,-6.540646997315421686e+03,-7.564191720077535138e+03,-1.894423405614033982e+04,-1.807900068989387728e+04,-3.987244230826959210e+02,-7.586748800147726797e+03,9.446745872497558594e+00,-7.266727685928344727e-01,-1.644575238227844238e+00,4.000000000000000000e+01
-9.226203533329047787e+03,-1.649589102990816900e+04,-6.367148438148320565e+03,-7.529333362291690719e+03,-1.885598481033786811e+04,-1.786203962053809300e+04,-1.459496156249199430e+03,-7.328444583863765729e+03,9.446745872497558594e+00,-7.266727685928344727e-01,-1.644575238227844238e+00,4.100000000000000000e+01
-9.221369444208168716e+03,-1.626793001220021688e+04,-6.150548067524721773e+03,-7.311731312570494993e+03,-1.855032302026700563e+04,-1.757618314569724680e+04,-3.165416400290327147e+03,-7.128165208843234723e+03,9.446745872497558594e+00,-7.266727685928344727e-01,-1.644575238227844238e+00,4.200000000000000000e+01
-8.942772518914976899e+03,-1.632720371477632943e+04,-6.094081856046816938e+03,-7.105902079672759101e+03,-1.836576847294838080e+04,-1.753636822554458195e+04,-3.737031162185952780e+03,-7.179545183392088802e+03,9.446745872497558594e+00,-7.266727685928344727e-01,-1.644575238227844238e+00,4.300000000000000000e+01
-8.663072593250675709e+03,-1.646530595882669877e+04,-6.166176232251706097e+03,-7.067907920764777373e+03,-1.840841287783876396e+04,-1.766030341493164815e+04,-3.587689315995377001e+03,-7.309581293883656144e+03,9.446745872497558594e+00,-7.266727685928344727e-01,-1.644575238227844238e+00,4.400000000000000000e+01
-8.589148662973098908e+03,-1.626179926620058541e+04,-6.130703303848017640e+03,-7.075995576884380171e+03,-1.834263336242300284e+04,-1.752237202689321566e+04,-4.851168899102440264e+03,-7.202146624617127600e+03,9.446745872497558594e+00,-7.266727685928344727e-01,-1.644575238227844238e+00,4.500000000000000000e+01
-8.683840015598971149e+03,-1.582842289836288182e+04,-5.916304397040863478e+03,-6.970454812439043963e+03,-1.805123667206559185e+04,-1.712070256616436018e+04,-6.407232019895526719e+03,-6.889010327800868254e+03,9.446745872497558594e+00,-7.266727685928344727e-01,-1.644575238227844238e+00,4.600000000000000000e+01
-8.717259105079449000e+03,-1.564430732694154358e+04,-5.713672632419567890e+03,-6.773716361280361525e+03,-1.779289156090216420e+04,-1.687506297719310169e+04,-5.837257270060909832e+03,-6.703436554387983051e+03,9.446745872497558594e+00,-7.266727685928344727e-01,-1.644575238227844238e+00,4.700000000000000000e+01
-8.515683360526723845e+03,-1.578727193358072873e+04,-5.684409861007744439e+03,-6.612636889109940967e+03,-1.771992031998867242e+04,-1.693052938815843663e+04,-5.682374019836852312e+03,-6.785061430824540366e+03,9.446745872497558594e+00,-7.266727685928344727e-01,-1.644575238227844238e+00,4.800000000000000000e+01
-8.214179384297027354e+03,-1.585835248767164558e+04,-5.744410801713640467e+03,-6.552204292099260783e+03,-1.770043897988988829e+04,-1.698666500093986542e+04,-9.154873398805553734e+03,-6.897420734792319308e+03,9.446745872497558594e+00,-7.266727685928344727e-01,-1.644575238227844238e+00,4.900000000000000000e+01
-8.107549741631833967e+03,-1.559490146550554709e+04,-5.695088059017546584e+03,-6.531737366487632244e+03,-1.757154047229327261e+04,-1.677960972235291047e+04,-1.088402397885033861e+04,-6.774774000731648812e+03,9.446745872497558594e+00,-7.266727685928344727e-01,-1.644575238227844238e+00,5.000000000000000000e+01
-8.225564126744957321e+03,-1.520436114959906627e+04,-5.491022413819337999e+03,-6.440052003106424308e+03,-1.733266277726130284e+04,-1.641788696121780231e+04,-2.838581771969335932e+03,-6.478977070724627083e+03,9.446745872497558594e+00,-7.266727685928344727e-01,-1.644575238227844238e+00,5.100000000000000000e+01
-8.272689648569217752e+03,-1.504450633879622546e+04,-5.294929514612020284e+03,-6.255754150662327447e+03,-1.710661474441386963e+04,-1.619528634084288933e+04,1.118394352553497083e+04,-6.302021430511157632e+03,9.408499717712402344e+00,-8.031646609306335449e-01,-1.491591572761535645e+00,5.200000000000000000e+01
-8.052267858897424958e+03,-1.515235274022019075e+04,-5.258096671954863268e+03,-6.084888457617030326e+03,-1.699326779910600089e+04,-1.620891199352897820e+04,1.887101412310802334e+04,-6.370026996709630112e+03,9.408499717712402344e+00,-8.031646609306335449e-01,-1.491591572761535645e+00,5.300000000000000000e+01
-7.753287188253897511e+03,-1.521649512427258378e+04,-5.317433234457688741e+03,-6.025641109059291921e+03,-1.695970580209631225e+04,-1.625480475084178761e+04,1.696631726986102149e+04,-6.478724581668180690e+03,9.408499717712402344e+00,-8.031646609306335449e-01,-1.491591572761535645e+00,5.400000000000000000e+01
-7.663299839418848023e+03,-1.496808217177284678e+04,-5.274520434396658857e+03,-6.018915999568205734e+03,-1.684408807472033004e+04,-1.607050359513373951e+04,1.365298553626359353e+04,-6.364957848637296593e+03,9.408499717712402344e+00,-8.031646609306335449e-01,-1.491591572761535645e+00,5.500000000000000000e+01
-7.782078105006094120e+03,-1.456790693940322308e+04,-5.075210630018984375e+03,-5.936379223103954246e+03,-1.659923249455947007e+04,-1.571248573810572088e+04,1.398462568097585245e+04,-6.075085692824689431e+03,9.408499717712402344e+00,-8.031646609306335449e-01,-1.491591572761535645e+00,5.600000000000000000e+01
-7.823519833626914078e+03,-1.438600418513600016e+04,-4.882841917107203699e+03,-5.755838632028401662e+03,-1.635582169181987592e+04,-1.547668707288560472e+04,1.449237350611421061e+04,-5.899195376997948188e+03,9.408499717712402344e+00,-8.031646609306335449e-01,-1.491591572761535645e+00,5.700000000000000000e+01
-7.611529885677214224e+03,-1.448993765874775636e+04,-4.849811975593005627e+03,-5.591842730968043725e+03,-1.623924557684233878e+04,-1.548916065165826876e+04,1.264547891132496443e+04,-5.968705810322971956e+03,9.408499717712402344e+00,-8.031646609306335449e-01,-1.491591572761535645e+00,5.800000000000000000e+01
-7.322326534542444278e+03,-1.455205636038990633e+04,-4.906761487827465317e+03,-5.538462389284894016e+03,-1.619654691943923899e+04,-1.553122520329984582e+04,1.098698146689405985e+04,-6.075190452109227408e+03,9.408499717712402344e+00,-8.031646609306335449e-01,-1.491591572761535645e+00,5.900000000000000000e+01
-7.239685785280081291e+03,-1.430476394332980999e+04,-4.859937549022998610e+03,-5.538807498121336721e+03,-1.607088397081263247e+04,-1.534168687951821266e+04,1.100438952070129744e+04,-5.959839789303627185e+03,9.408499717712402344e+00,-8.031646609306335449e-01,-1.491591572761535645e+00,6.000000000000000000e+01
-7.363542468954032302e+03,-1.390893704055484704e+04,-4.658973678326710797e+03,-5.462661844312888206e+03,-1.581813018448192452e+04,-1.497847949380767750e+04,1.094196368354329752e+04,-5.670912558456169791e+03,9.408499717712402344e+00,-8.031646609306335449e-01,-1.491591572761535645e+00,6.100000000000000000e+01
-7.412330117906087253e+03,-1.372643950257147662e+04,-4.465614142844901835e+03,-5.286725432639803330e+03,-1.556781541364599980e+04,-1.473739282115270908e+04,1.005942704844396940e+04,-5.495235499888614868e+03,9.408499717712402344e+00,-8.031646609306335449e-01,-1.491591572761535645e+00,6.200000000000000000e+01
-7.212990907402933772e+03,-1.381868862883378461e+04,-4.430749515882840569e+03,-5.126513510070041775e+03,-1.544508138521665387e+04,-1.474094624268052212e+04,9.379814100642250196e+03,-5.560792791776846570e+03,9.408499717712402344e+00,-8.031646609306335449e-01,-1.491591572761535645e+00,6.300000000000000000e+01
-6.937627829646888131e+03,-1.386626126043837576e+04,-4.487915338563651858e+03,-5.074779165433115850e+03,-1.539867820784478499e+04,-1.477107949159014242e+04,8.847141403201665526e+03,-5.661570152709990907e+03,9.408499717712402344e+00,-8.031646609306335449e-01,-1.491591572761535645e+00,6.400000000000000000e+01
-6.862446499373883853e+03,-1.361233519920118670e+04,-4.446560721676696630e+03,-5.072945502858328837e+03,-1.527285406621276888e+04,-1.457581818885118082e+04,7.840817516328079364e+03,-5.544914133471826062e+03,9.408499717712402344e+00,-8.031646609306335449e-01,-1.491591572761535645e+00,6.500000000000000000e+01
-6.985429353312157218e+03,-1.321423424685747887e+04,-4.254624937929511361e+03,-4.994579148165526021e+03,-1.502400473373987552e+04,-1.421879484581610450e+04,7.095751401177721164e+03,-5.261172793189758522e+03,9.408499717712402344e+00,-8.031646609306335449e-01,-1.491591572761535645e+00,6.600000000000000000e+01
-7.029377335622148166e+03,-1.302510641247576677e+04,-4.068432147800316216e+03,-4.822042285201474442e+03,-1.478092343132236965e+04,-1.398841321081684328e+04,7.126964564686204540e+03,-5.093009831632094574e+03,9.408499717712402344e+00,-8.031646609306335449e-01,-1.491591572761535645e+00,6.700000000000000000e+01
-6.824190093474083369e+03,-1.310944070507332799e+04,-4.035516610705922176e+03,-4.669911306921534560e+03,-1.466487820135480251e+04,-1.399800106759199480e+04,6.722504189449340629e+03,-5.164227006033982434e+03,9.408499717712402344e+00,-8.031646609306335449e-01,-1.491591572761535645e+00,6.800000000000000000e+01
-6.541071176526916133e+03,-1.315555632132544997e+04,-4.092295711215895153e+03,-4.625149615307118438e+03,-1.462136442754379823e+04,-1.403044404816460155e+04,5.276919666781061096e+03,-5.269558760804384292e+03,9.408499717712402344e+00,-8.031646609306335449e-01,-1.491591572761535645e+00,6.900000000000000000e+01
-6.456239138067564454e+03,-1.290389691316620701e+04,-4.054669002414317674e+03,-4.627301044996336714e+03,-1.449680718052229349e+04,-1.383773418168608259e+04,4.231116973112975757e+03,-5.159022913321105079e+03,9.408499717712402344e+00,-8.031646609306335449e-01,-1.491591572761535645e+00,7.000000000000000000e+01
-6.570015037743622997e+03,-1.250485256710678368e+04,-3.872642534116790557e+03,-4.552873454226313697e+03,-1.425024111295893817e+04,-1.348099857757447171e+04,4.311053725888374174e+03,-4.882002282967026986e+03,9.408499717712402344e+00,-8.031646609306335449e-01,-1.491591572761535645e+00,7.100000000000000000e+01
-6.607288359592185770e+03,-1.231351759132047664e+04,-3.697085538708514832e+03,-4.385384457211566769e+03,-1.400679523755788250e+04,-1.324473787990466190e+04,4.072947608431658409e+03,-4.716414508047090749e+03,9.408499717712402344e+00,-8.031646609306335449e-01,-1.491591572761535645e+00,7.200000000000000000e+01
-6.399768887799144977e+03,-1.239980959967681338e+04,-3.669610912618431030e+03,-4.236764951446122723e+03,-1.388373124768603157e+04,-1.324434323501746803e+04,2.825302889578602844e+03,-4.783357554503449137e+03,9.408499717712402344e+00,-8.031646609306335449e-01,-1.491591572761535645e+00,7.300000000000000000e+01
-6.119514874117160616e+03,-1.245081301289708426e+04,-3.727393930062377876e+03,-4.192205848097906710e+03,-1.383117980552624431e+04,-1.326854997520550387e+04,1.895832112318496911e+03,-4.881886473275641038e+03,9.408499717712402344e+00,-8.031646609306335449e-01,-1.491591572761535645e+00,7.400000000000000000e+01
-6.039096366829757244e+03,-1.220396047046062085e+04,-3.690842883877321583e+03,-4.193146704993361709e+03,-1.370326984290385735e+04,-1.307344301810912293e+04,1.635421708722512903e+03,-4.769967927772479925e+03,9.408499717712402344e+00,-8.031646609306335449e-01,-1.491591572761535645e+00,7.500000000000000000e+01
-6.153982713557002171e+03,-1.181033022828410685e+04,-3.511710044983823991e+03,-4.118983869929529646e+03,-1.345871245227109466e+04,-1.271942752423413003e+04,7.838010976427794958e+02,-4.498847732955877291e+03,9.408499717712402344e+00,-8.031646609306335449e-01,-1.491591572761535645e+00,7.600000000000000000e+01
-6.192808882749637633e+03,-1.162218746221524270e+04,-3.339735218288676606e+03,-3.954061735386048895e+03,-1.321671244724852477e+04,-1.248579708611643036e+04,-2.553182527917438165e+02,-4.339413615343533820e+03,9.408499717712402344e+00,-8.031646609306335449e-01,-1.491591572761535645e+00,7.700000000000000000e+01
-5.997791921670463125e+03,-1.170226737716650496e+04,-3.315459066644915765e+03,-3.809364761463547893e+03,-1.309272149001125217e+04,-1.248407564817243656e+04,-3.954323735384332394e+01,-4.406747359022420824e+03,9.408499717712402344e+00,-8.031646609306335449e-01,-1.491591572761535645e+00,7.800000000000000000e+01
-5.743303932105287458e+03,-1.174017935416186083e+04,-3.375013531910793972e+03,-3.768664322563151018e+03,-1.303919216758240327e+04,-1.250538088453257842e+04,-9.778830759194806888e+01,-4.503019575183784582e+03,9.408499717712402344e+00,-8.031646609306335449e-01,-1.491591572761535645e+00,7.900000000000000000e+01
-5.691992316902553284e+03,-1.148730780517373933e+04,-3.337884149498222996e+03,-3.771867328634324622e+03,-1.291064124383115632e+04,-1.230932105819312528e+04,-2.407174826745917017e+03,-4.391781116515803660e+03,9.408499717712402344e+00,-8.031646609306335449e-01,-1.491591572761535645e+00,8.000000000000000000e+01
-5.830651270012172972e+03,-1.109973783041118077e+04,-3.156682038251974063e+03,-3.697938290894160218e+03,-1.266445339964236155e+04,-1.195478636924930470e+04,-3.209606846539662001e+03,-4.122698197848782911e+03,9.408499717712402344e+00,-8.031646609306335449e-01,-1.491591572761535645e+00,8.100000000000000000e+01
-5.887728017204120079e+03,-1.091770663314107151e+04,-2.982444788695152511e+03,-3.533377990218827563e+03,-1.242025696465709916e+04,-1.171941141985248942e+04,2.954080214995573442e+03,-3.961685776174604143e+03,9.408499717712402344e+00,-8.031646609306335449e-01,-1.491591572761535645e+00,8.200000000000000000e+01
-5.705056323858028009e+03,-1.099564464078685342e+04,-2.954888916007144417e+03,-3.391922248770745227e+03,-1.229454569811332840e+04,-1.171819868662783301e+04,1.328504266702489258e+04,-4.024512712251576431e+03,9.484992027282714844e+00,-7.266727685928344727e-01,-1.606329321861267090e+00,8.300000000000000000e+01
-5.452099250427660081e+03,-1.103202515249254066e+04,-3.009818808174424248e+03,-3.357332601816472106e+03,-1.223955919519277450e+04,-1.174506112594634760e+04,1.906099559745833540e+04,-4.118066769623207620e+03,9.484992027282714844e+00,-7.266727685928344727e-01,-1.606329321861267090e+00,8.400000000000000000e+01
-5.390890593026703755e+03,-1.078658677505320884e+04,-2.970414230666446656e+03,-3.367989180260471585e+03,-1.211032911888752824e+04,-1.155716949221959476e+04,1.800777319461736261e+04,-4.007596941356516254e+03,9.484992027282714844e+00,-7.266727685928344727e-01,-1.606329321861267090e+00,8.500000000000000000e+01
-5.516070814660980432e+03,-1.040780353402225592e+04,-2.793199822775793109e+03,-3.302892271424755108e+03,-1.186656112628002120e+04,-1.121112866006768127e+04,1.591743904597652545e+04,-3.741913111646118068e+03,9.484992027282714844e+00,-7.266727685928344727e-01,-1.606329321861267090e+00,8.600000000000000000e+01
-5.563677015889488757e+03,-1.022705187608209962e+04,-2.627403223998977410e+03,-3.148072507006570959e+03,-1.162898796707424663e+04,-1.098450981403416336e+04,1.621202712783200150e+04,-3.587087448554243110e+03,9.484992027282714844e+00,-7.266727685928344727e-01,-1.606329321861267090e+00,8.700000000000000000e+01
-5.375976242781672227e+03,-1.030439386083182035e+04,-2.607463523628976418e+03,-3.013680542085934576e+03,-1.151192439400365402e+04,-1.098980925770913746e+04,1.639000768120872817e+04,-3.658166966067573412e+03,9.484992027282714844e+00,-7.266727685928344727e-01,-1.606329321861267090e+00,8.800000000000000000e+01
-5.118993053731719556e+03,-1.034631859285929386e+04,-2.667284081698341652e+03,-2.981356737703799809e+03,-1.146434101436369201e+04,-1.101853886672583758e+04,1.493351605923709394e+04,-3.758847529893555475e+03,9.484992027282714844e+00,-7.266727685928344727e-01,-1.606329321861267090e+00,8.900000000000000000e+01
-5.052606926918669160e+03,-1.010813740914764458e+04,-2.632461835002807220e+03,-2.993385794330362842e+03,-1.134000287816542004e+04,-1.083180031236232207e+04,1.399631744102232187e+04,-3.652691823546088926e+03,9.484992027282714844e+00,-7.266727685928344727e-01,-1.606329321861267090e+00,9.000000000000000000e+01
-5.172064343407333581e+03,-9.730811539839527541e+03,-2.461698208613193401e+03,-2.933359064364174174e+03,-1.109975995756894918e+04,-1.049031365648131396e+04,1.449589796785402905e+04,-3.390006183736226376e+03,9.484992027282714844e+00,-7.266727685928344727e-01,-1.606329321861267090e+00,9.100000000000000000e+01
-5.216255600103284451e+03,-9.547469151795103244e+03,-2.303850320611448751e+03,-2.785655532034159478e+03,-1.086597227174161162e+04,-1.026706286016055310e+04,1.447686740742946313e+04,-3.237639689722284402e+03,9.484992027282714844e+00,-7.266727685928344727e-01,-1.606329321861267090e+00,9.200000000000000000e+01
-5.029441868389092633e+03,-9.622848995391528661e+03,-2.292064985331480329e+03,-2.655857166404494819e+03,-1.075338935824711189e+04,-1.026896628837275057e+04,1.308299917513990840e+04,-3.310147031764908661e+03,9.484992027282714844e+00,-7.266727685928344727e-01,-1.606329321861267090e+00,9.300000000000000000e+01
-4.775017662620593910e+03,-9.664394377575668841e+03,-2.359543498274756530e+03,-2.625103497729357059e+03,-1.071076548846959122e+04,-1.029255753650235420e+04,1.195332028071157583e+04,-3.413376375523364004e+03,9.484992027282714844e+00,-7.266727685928344727e-01,-1.606329321861267090e+00,9.400000000000000000e+01
-4.708449866229468171e+03,-9.430298968936631354e+03,-2.331207280444162734e+03,-2.638564102199489298e+03,-1.059217108310683761e+04,-1.010779635163919556e+04,1.209513257770743803e+04,-3.314055636028368099e+03,9.484992027282714844e+00,-7.266727685928344727e-01,-1.606329321861267090e+00,9.500000000000000000e+01
-4.825868916896782139e+03,-9.064832294408868620e+03,-2.164350614544153814e+03,-2.581532233778715636e+03,-1.035828187030877598e+04,-9.774689054586640850e+03,1.228525984042250639e+04,-3.060483223971017196e+03,9.484992027282714844e+00,-7.266727685928344727e-01,-1.606329321861267090e+00,9.600000000000000000e+01
-4.871481675163594446e+03,-8.893804052323983342e+03,-2.006943035036480978e+03,-2.438260822708739397e+03,-1.012952084141771775e+04,-9.558634488442177826e+03,1.136687249793712544e+04,-2.913719094498186678e+03,9.484992027282714844e+00,-7.266727685928344727e-01,-1.606329321861267090e+00,9.700000000000000000e+01
-4.691013621256821352e+03,-8.969351924612112271e+03,-1.993837445641786871e+03,-2.313690416840514445e+03,-1.001925806735737569e+04,-9.563544600632558286e+03,1.019257617891149130e+04,-2.986759016301924930e+03,9.484992027282714844e+00,-7.266727685928344727e-01,-1.606329321861267090e+00,9.800000000000000000e+01
-4.443805942340500224e+03,-8.999941276669873332e+03,-2.061769821121041787e+03,-2.287852813712900570e+03,-9.978345961272214481e+03,-9.588642801583198889e+03,9.970219238340763695e+03,-3.089433281878810703e+03,9.484992027282714844e+00,-7.266727685928344727e-01,-1.606329321861267090e+00,9.900000000000000000e+01
-4.382402685881788784e+03,-8.757748643996075771e+03,-2.037483331724061372e+03,-2.305188664784210232e+03,-9.864019245278288508e+03,-9.406043310448259945e+03,9.933942294939723070e+03,-2.991322511983446020e+03,9.484992027282714844e+00,-7.266727685928344727e-01,-1.606329321861267090e+00,1.000000000000000000e+02
-4.503472301991330824e+03,-8.394250077745637100e+03,-1.876976499771656563e+03,-2.251901950594214213e+03,-9.636453381254264968e+03,-9.075911145075468085e+03,8.827277859126266776e+03,-2.739582109295933151e+03,9.484992027282714844e+00,-7.266727685928344727e-01,-1.606329321861267090e+00,1.010000000000000000e+02
-4.551287480612296349e+03,-8.230207289135993051e+03,-1.725961008182695878e+03,-2.113418726465273721e+03,-9.412651028939941170e+03,-8.863866176341329265e+03,8.076262065631832229e+03,-2.593919195828338616e+03,9.484992027282714844e+00,-7.266727685928344727e-01,-1.606329321861267090e+00,1.020000000000000000e+02
-4.370776358945787251e+03,-8.313094328313640290e+03,-1.717687566913104092e+03,-1.993994975223313304e+03,-9.304448990388529637e+03,-8.874010963099735818e+03,1.030638668348324063e+04,-2.668026342214949182e+03,9.484992027282714844e+00,-7.266727685928344727e-01,-1.606329321861267090e+00,1.030000000000000000e+02
-4.122371246506282660e+03,-8.352101198599541021e+03,-1.787860632464551600e+03,-1.972149215546493906e+03,-9.264335134059932898e+03,-8.905282140783700015e+03,1.472043406959453569e+04,-2.772952586501087808e+03,9.484992027282714844e+00,-9.179025292396545410e-01,-1.491591572761535645e+00,1.040000000000000000e+02
-4.059853357995775696e+03,-8.118693018787933397e+03,-1.763799416832155657e+03,-1.992569728953209051e+03,-9.151727103321722097e+03,-8.729672351879413327e+03,1.748491297947871499e+04,-2.679391864717276803e+03,9.484992027282714844e+00,-9.179025292396545410e-01,-1.491591572761535645e+00,1.050000000000000000e+02
-4.178850835998637194e+03,-7.760659403514351652e+03,-1.604266787123279755e+03,-1.943468752248224519e+03,-8.927931732251177891e+03,-8.406660578815755798e+03,1.707739070456033369e+04,-2.435277978761891518e+03,9.484992027282714844e+00,-9.179025292396545410e-01,-1.491591572761535645e+00,1.060000000000000000e+02
-4.223827214662321239e+03,-7.597813607230064008e+03,-1.456847074424087623e+03,-1.811295509640483033e+03,-8.709758467377061606e+03,-8.199610540421766927e+03,1.567640548787445186e+04,-2.298402257081881089e+03,9.484992027282714844e+00,-9.179025292396545410e-01,-1.491591572761535645e+00,1.070000000000000000e+02
-4.043257980793930983e+03,-7.681242696934816195e+03,-1.453452899968246129e+03,-1.698531960508924385e+03,-8.607120473805425718e+03,-8.211111481678355631e+03,1.505044663567398857e+04,-2.378087153367209339e+03,9.484992027282714844e+00,-9.179025292396545410e-01,-1.491591572761535645e+00,1.080000000000000000e+02
-3.798883253003103164e+03,-7.724422213850984917e+03,-1.528395078545051547e+03,-1.681144598385924837e+03,-8.570143862360495405e+03,-8.242364437017055025e+03,1.468105421217493495e+04,-2.484109792114577431e+03,9.484992027282714844e+00,-9.179025292396545410e-01,-1.491591572761535645e+00,1.090000000000000000e+02
-3.740734711679187967e+03,-7.499368155215409388e+03,-1.510089207108019764e+03,-1.703993357257649222e+03,-8.458107080100326129e+03,-8.069371417214836583e+03,1.407847259101184318e+04,-2.391088263394105979e+03,9.484992027282714844e+00,-9.179025292396545410e-01,-1.491591572761535645e+00,1.100000000000000000e+02
-3.862390052060594826e+03,-7.149725577009538938e+03,-1.357110291604153645e+03,-1.657728618477429336e+03,-8.234136209282949494e+03,-7.751906861712539467e+03,1.370756141105342249e+04,-2.149504679446692535e+03,9.484992027282714844e+00,-9.179025292396545410e-01,-1.491591572761535645e+00,1.110000000000000000e+02
-3.911619387882313276e+03,-6.991645602541287190e+03,-1.213269577321171710e+03,-1.529545713061667811e+03,-8.016191141866000180e+03,-7.549176225226477982e+03,1.348738840263088969e+04,-2.014115469324138758e+03,9.484992027282714844e+00,-9.179025292396545410e-01,-1.491591572761535645e+00,1.120000000000000000e+02
-3.738509778234376427e+03,-7.079285258069309748e+03,-1.208683301278557337e+03,-1.420364063439920756e+03,-7.914646706136854846e+03,-7.561059735360762716e+03,1.274188041007276843e+04,-2.091943573989000470e+03,9.484992027282714844e+00,-9.179025292396545410e-01,-1.491591572761535645e+00,1.130000000000000000e+02
-3.500471669956131336e+03,-7.132079125062654384e+03,-1.281767250907559173e+03,-1.405709320297170962e+03,-7.881121452392859283e+03,-7.591614033045511860e+03,1.168551366592164413e+04,-2.196601628445147981e+03,9.484992027282714844e+00,-9.179025292396545410e-01,-1.491591572761535645e+00,1.140000000000000000e+02
-3.444010647480217813e+03,-6.920733474121645486e+03,-1.265202824766378399e+03,-1.431535000023244720e+03,-7.775978099371391181e+03,-7.421432099482494777e+03,1.118127561272731691e+04,-2.106742663278690088e+03,9.484992027282714844e+00,-9.179025292396545410e-01,-1.491591572761535645e+00,1.150000000000000000e+02
-3.564888221537831669e+03,-6.581043310854130141e+03,-1.116328127018070518e+03,-1.388186679170245043e+03,-7.560433670243430242e+03,-7.110843365916241964e+03,1.125238448692686870e+04,-1.870556041031250970e+03,9.484992027282714844e+00,-9.179025292396545410e-01,-1.491591572761535645e+00,1.160000000000000000e+02
-3.613711692877018322e+03,-6.425622066243865447e+03,-9.758893878606031649e+02,-1.261774822922878229e+03,-7.349407855647705219e+03,-6.916181758860871923e+03,1.097078645562168094e+04,-1.738732488942888267e+03,9.484992027282714844e+00,-9.179025292396545410e-01,-1.491591572761535645e+00,1.170000000000000000e+02
-3.439789142046494817e+03,-6.511865107686153351e+03,-9.741524274297025840e+02,-1.154095189227535229e+03,-7.253192741463273705e+03,-6.935441845402971012e+03,9.872773700175974227e+03,-1.819106364914993719e+03,9.484992027282714844e+00,-9.179025292396545410e-01,-1.491591572761535645e+00,1.180000000000000000e+02
-3.199352051060252961e+03,-6.561815191014819902e+03,-1.050899735841598158e+03,-1.141931641896215297e+03,-7.226005301896129822e+03,-6.972792614565652912e+03,8.784829099400603809e+03,-1.928329324942058975e+03,9.484992027282714844e+00,-9.179025292396545410e-01,-1.491591572761535645e+00,1.190000000000000000e+02
-3.139795717746055743e+03,-6.347203873598912651e+03,-1.038312879354823963e+03,-1.170749950993740640e+03,-7.129450349879394707e+03,-6.809032309023428752e+03,8.639975478539228789e+03,-1.844983310736849035e+03,9.484992027282714844e+00,-9.179025292396545410e-01,-1.491591572761535645e+00,1.200000000000000000e+02
-3.257828904597829023e+03,-6.008019054139205764e+03,-8.930088616815774003e+02,-1.131424821482625703e+03,-6.923116807221596900e+03,-6.504369947337681879e+03,8.823140374632113890e+03,-1.615397648426213891e+03,9.484992027282714844e+00,-9.179025292396545410e-01,-1.491591572761535645e+00,1.210000000000000000e+02
-3.304895297788810240e+03,-5.860197398425693791e+03,-7.559915701435575102e+02,-1.012444737377808451e+03,-6.719939958955817019e+03,-6.315324786751238207e+03,8.052977869312293478e+03,-1.489717024493290410e+03,9.484992027282714844e+00,-9.179025292396545410e-01,-1.491591572761535645e+00,1.220000000000000000e+02
-3.132505121638426317e+03,-5.956333469518598577e+03,-7.569042294956234400e+02,-9.148497477357614116e+02,-6.630206637720060826e+03,-6.340340316291873023e+03,6.777348026750467398e+03,-1.575810740809519302e+03,9.484992027282714844e+00,-9.179025292396545410e-01,-1.491591572761535645e+00,1.230000000000000000e+02
-2.897644032620804865e+03,-6.011352172531253927e+03,-8.348016132597658725e+02,-9.111460202107391524e+02,-6.609725418404290394e+03,-6.384488081204435730e+03,6.437165675098480278e+03,-1.690432873175057466e+03,9.484992027282714844e+00,-9.179025292396545410e-01,-1.491591572761535645e+00,1.240000000000000000e+02
-2.843966728360569505e+03,-5.797960501670062513e+03,-8.242637692413809418e+02,-9.457287930570964818e+02,-6.521560944061935515e+03,-6.229413237919130552e+03,6.467356805692939815e+03,-1.613324778696004614e+03,9.484992027282714844e+00,-9.179025292396545410e-01,-1.491591572761535645e+00,1.250000000000000000e+02
-2.964427562783213943e+03,-5.461251296319015637e+03,-6.854768754806327706e+02,-9.119491763335572614e+02,-6.325016684512400388e+03,-5.933737680087952867e+03,5.324547979248633055e+03,-1.390797656795946750e+03,9.484992027282714844e+00,-9.179025292396545410e-01,-1.491591572761535645e+00,1.260000000000000000e+02
-3.012724025087728478e+03,-5.316446979288453804e+03,-5.584817449940001097e+02,-7.972618403455389853e+02,-6.130297198867872794e+03,-5.749937671458867953e+03,4.454694273168781365e+03,-1.269402418290866990e+03,9.484992027282714844e+00,-9.179025292396545410e-01,-1.491591572761535645e+00,1.270000000000000000e+02
-2.845301659088183442e+03,-5.413089927044688011e+03,-5.679228273865483061e+02,-6.992857970807981474e+02,-6.044373641634228079e+03,-5.775083971006137290e+03,6.960872006548406716e+03,-1.354198168069378880e+03,9.484992027282714844e+00,-9.179025292396545410e-01,-1.491591572761535645e+00,1.280000000000000000e+02
-2.618822776428185534e+03,-5.469465681212877826e+03,-6.502300858229500591e+02,-6.928316274190892727e+02,-6.023189524472135417e+03,-5.818449786564146052e+03,1.200162223461186295e+04,-1.465179973670438812e+03,9.446745872497558594e+00,-7.266727685928344727e-01,-1.529837369918823242e+00,1.290000000000000000e+02
-2.571830994278895560e+03,-5.263442163271977734e+03,-6.414980927261422039e+02,-7.281204695053684190e+02,-5.934513306267213920e+03,-5.666204342177236867e+03,1.510823088210419155e+04,-1.387661282766611293e+03,9.446745872497558594e+00,-7.266727685928344727e-01,-1.529837369918823242e+00,1.300000000000000000e+02
-2.694907142271393241e+03,-4.937644463391217869e+03,-5.031073135683018336e+02,-6.985222544650550844e+02,-5.742096385604427269e+03,-5.376258269969542198e+03,1.459315197919327329e+04,-1.168727851725067012e+03,9.446745872497558594e+00,-7.266727685928344727e-01,-1.529837369918823242e+00,1.310000000000000000e+02
-2.744061858796530942e+03,-4.800994150889422599e+03,-3.745084022639548493e+02,-5.873772195702886165e+02,-5.555527732631081562e+03,-5.197962067768628003e+03,1.309267331003599611e+04,-1.051691081249502531e+03,9.446745872497558594e+00,-7.266727685928344727e-01,-1.529837369918823242e+00,1.320000000000000000e+02
-2.577249291639449439e+03,-4.902528273099959733e+03,-3.816674522317844094e+02,-4.923159565139403639e+02,-5.477928176488875579e+03,-5.228026944884985824e+03,1.255780825745591574e+04,-1.139696532780614689e+03,9.446745872497558594e+00,-7.266727685928344727e-01,-1.529837369918823242e+00,1.330000000000000000e+02
-2.349609489392752948e+03,-4.964800052015559231e+03,-4.647870776501458749e+02,-4.902923937333707727e+02,-5.462718967983267248e+03,-5.276999714040422987e+03,1.217333335029105547e+04,-1.252813698473300065e+03,9.446745872497558594e+00,-7.266727685928344727e-01,-1.529837369918823242e+00,1.340000000000000000e+02
-2.299694450928744118e+03,-4.767262938483388098e+03,-4.610782791946094221e+02,-5.296381543338502524e+02,-5.377148363220347164e+03,-5.130706811695619763e+03,1.144050364739163524e+04,-1.176297213284786267e+03,9.446745872497558594e+00,-7.266727685928344727e-01,-1.529837369918823242e+00,1.350000000000000000e+02
-2.422005509225740752e+03,-4.449579275176434749e+03,-3.283462629919622486e+02,-5.016610926996909257e+02,-5.185593537532534356e+03,-4.846479140377779913e+03,1.111925128729344760e+04,-9.575417333052155300e+02,9.446745872497558594e+00,-7.266727685928344727e-01,-1.529837369918823242e+00,1.360000000000000000e+02
-2.475813177253074173e+03,-4.316760432425445288e+03,-2.029580816362904443e+02,-3.924669826258414105e+02,-5.000316771435896044e+03,-4.674587939811680371e+03,1.099382101616193904e+04,-8.409276235812567393e+02,9.446745872497558594e+00,-7.266727685928344727e-01,-1.529837369918823242e+00,1.370000000000000000e+02
-2.317499786490949191e+03,-4.417619223765589595e+03,-2.122509695544358692e+02,-3.018581345109651011e+02,-4.927646055204345430e+03,-4.711621365402215815e+03,1.010640682321010536e+04,-9.296985729432608423e+02,9.446745872497558594e+00,-7.266727685928344727e-01,-1.529837369918823242e+00,1.380000000000000000e+02
-2.098116572625574918e+03,-4.480473815239794021e+03,-2.985810080520304837e+02,-3.039396281196186465e+02,-4.920496542903022601e+03,-4.765800233977818607e+03,8.944018572172542918e+03,-1.043480883021957197e+03,9.446745872497558594e+00,-7.266727685928344727e-01,-1.529837369918823242e+00,1.390000000000000000e+02
-2.054033985611895332e+03,-4.290570467331587679e+03,-2.980973764403597670e+02,-3.452642339548601740e+02,-4.842717782066515610e+03,-4.622364864383559507e+03,8.642032358271790144e+03,-9.689295147059183364e+02,9.446745872497558594e+00,-7.266727685928344727e-01,-1.529837369918823242e+00,1.400000000000000000e+02
-2.180253845247591016e+03,-3.983731870766293468e+03,-1.673213161879757536e+02,-3.200322888037244411e+02,-4.657597997476601449e+03,-4.341360271084280612e+03,8.755190174811628822e+03,-7.551051225440060080e+02,9.446745872497558594e+00,-7.266727685928344727e-01,-1.529837369918823242e+00,1.410000000000000000e+02
-2.237419343729427055e+03,-3.855230382920140073e+03,-4.445498007678452268e+01,-2.157247533028057660e+02,-4.478303701220066614e+03,-4.174480830720712220e+03,8.155919617218241910e+03,-6.446533772126413169e+02,9.446745872497558594e+00,-7.266727685928344727e-01,-1.529837369918823242e+00,1.420000000000000000e+02
-2.082722237862470138e+03,-3.953095699367554516e+03,-5.816301107111121382e+01,-1.293297931777397025e+02,-4.410019612186561972e+03,-4.216611624273330563e+03,7.096123463291036387e+03,-7.376548697876196456e+02,9.446745872497558594e+00,-7.266727685928344727e-01,-1.529837369918823242e+00,1.430000000000000000e+02
-1.866749601522113153e+03,-4.014810858436388116e+03,-1.484472071710924865e+02,-1.337760453123009938e+02,-4.404959441704666460e+03,-4.275862806451488723e+03,6.421476648714684416e+03,-8.541672563143783918e+02,9.446745872497558594e+00,-7.266727685928344727e-01,-1.529837369918823242e+00,1.440000000000000000e+02
-1.824518885087209128e+03,-3.829978540118983801e+03,-1.500682468446402709e+02,-1.777720518934238498e+02,-4.330850615446831398e+03,-4.140105364424017353e+03,6.039357680813800471e+03,-7.834741374728318988e+02,9.446745872497558594e+00,-7.266727685928344727e-01,-1.529837369918823242e+00,1.450000000000000000e+02
-1.950697979204922376e+03,-3.530528995641510846e+03,-2.236515008318656328e+01,-1.562014597337547457e+02,-4.154155823524490188e+03,-3.868784784240244335e+03,5.674114345469657565e+03,-5.737681417627090923e+02,9.446745872497558594e+00,-7.266727685928344727e-01,-1.529837369918823242e+00,1.460000000000000000e+02
-2.007681736608743449e+03,-3.410529027359335487e+03,9.549854773122842744e+01,-5.559595038950828894e+01,-3.984312452979245791e+03,-3.708768895099265137e+03,5.587849272385068616e+03,-4.641886828918350147e+02,9.446745872497558594e+00,-7.266727685928344727e-01,-1.529837369918823242e+00,1.470000000000000000e+02
-1.854550640622675928e+03,-3.519826966562606685e+03,7.943707693693158944e+01,2.598712964230071520e+01,-3.921776914931519968e+03,-3.753654611988471515e+03,5.530093664836957032e+03,-5.552653571488708621e+02,9.446745872497558594e+00,-7.266727685928344727e-01,-1.529837369918823242e+00,1.480000000000000000e+02
-1.641323491221020959e+03,-3.591433387255620801e+03,-8.302891557454131544e+00,1.479458918119962618e+01,-3.920875906670449695e+03,-3.816398167719279627e+03,4.828435292117317658e+03,-6.721601072005360038e+02,9.446745872497558594e+00,-7.266727685928344727e-01,-1.529837369918823242e+00,1.490000000000000000e+02
-1.600341428902124790e+03,-3.409161771953469724e+03,-7.993650454473936406e+00,-3.460820711020642193e+01,-3.853829476922346657e+03,-3.687921719569744710e+03,4.043692635582528965e+03,-6.071445349196137613e+02,9.446745872497558594e+00,-7.266727685928344727e-01,-1.529837369918823242e+00,1.500000000000000000e+02
-1.724568925202294849e+03,-3.109524509831073374e+03,1.160779518926046876e+02,-1.362909304633831198e+01,-3.686755620383228234e+03,-3.424275914115441083e+03,4.215632688265235629e+03,-4.059124104081947735e+02,9.446745872497558594e+00,-7.266727685928344727e-01,-1.529837369918823242e+00,1.510000000000000000e+02
-1.778225887171674913e+03,-2.994635029789222244e+03,2.277649082527914288e+02,8.995934366382061853e+01,-3.526530708653179317e+03,-3.268115506787052254e+03,4.453837925543568417e+03,-3.035939850457434659e+02,9.446745872497558594e+00,-7.266727685928344727e-01,-1.529837369918823242e+00,1.520000000000000000e+02
-1.624596976475721931e+03,-3.112713141065212767e+03,2.074897306434713755e+02,1.755371394382746075e+02,-3.472777981374943920e+03,-3.313233791887009829e+03,3.329774796747680739e+03,-3.988441271182146011e+02,9.446745872497558594e+00,-7.266727685928344727e-01,-1.529837369918823242e+00,1.530000000000000000e+02
-1.415836997893566149e+03,-3.192091480599154238e+03,1.165119374117548432e+02,1.695671871045424268e+02,-3.477973190502756552e+03,-3.375401589134876303e+03,2.427800099145477361e+03,-5.165378045120123716e+02,9.446745872497558594e+00,-7.266727685928344727e-01,-1.529837369918823242e+00,1.540000000000000000e+02
-1.382040018362231422e+03,-3.019672016982269270e+03,1.128303446516083568e+02,1.261006172702300319e+02,-3.411442228323780910e+03,-3.248172206916982759e+03,4.693333789496966347e+03,-4.499175836568365412e+02,9.446745872497558594e+00,-7.266727685928344727e-01,-1.529837369918823242e+00,1.550000000000000000e+02
-1.513080961399246007e+03,-2.733801586943366601e+03,2.343866139265755919e+02,1.496483181938137932e+02,-3.241029983673224706e+03,-2.989323938360264037e+03,9.241782619917354168e+03,-2.474612347524971483e+02,9.408499717712402344e+00,-8.031646609306335449e-01,-1.529837369918823242e+00,1.560000000000000000e+02
-1.573034504678643316e+03,-2.628085919868776728e+03,3.464476378254084921e+02,2.497813895288736603e+02,-3.079336194746273577e+03,-2.841182918649048588e+03,1.192227433177692001e+04,-1.466913430497834270e+02,9.408499717712402344e+00,-8.031646609306335449e-01,-1.529837369918823242e+00,1.570000000000000000e+02
-1.425294855922489660e+03,-2.744768150813942157e+03,3.268901681486386224e+02,3.281946629894810030e+02,-3.028644530750734702e+03,-2.895402957544929450e+03,1.127350849760839264e+04,-2.458169129216576039e+02,9.408499717712402344e+00,-8.031646609306335449e-01,-1.529837369918823242e+00,1.580000000000000000e+02
-1.218396221763294307e+03,-2.819875960610504080e+03,2.349177874035858622e+02,3.139891503293347341e+02,-3.040555983910566283e+03,-2.966655825284053208e+03,9.882622995203309983e+03,-3.684162527121661697e+02,9.408499717712402344e+00,-8.031646609306335449e-01,-1.529837369918823242e+00,1.590000000000000000e+02
-1.178602824303619855e+03,-2.649254542678528196e+03,2.287151723938968644e+02,2.606157412541042504e+02,-2.984270398757444127e+03,-2.848818093472105829e+03,9.728650786779186092e+03,-3.077590900162131220e+02,9.408499717712402344e+00,-8.031646609306335449e-01,-1.529837369918823242e+00,1.600000000000000000e+02
-1.298045869051335103e+03,-2.369551521574623166e+03,3.457756888317999255e+02,2.725685635656163868e+02,-2.826165661783415089e+03,-2.598780519607650604e+03,9.946075537314522080e+03,-1.113946187620085766e+02,9.408499717712402344e+00,-8.031646609306335449e-01,-1.529837369918823242e+00,1.610000000000000000e+02
-1.347192737191706328e+03,-2.270619521295374852e+03,4.518541713093072758e+02,3.627551616194514281e+02,-2.673531016026418911e+03,-2.457393838999703803e+03,9.558808755690497492e+03,-1.411798746948898042e+01,9.408499717712402344e+00,-8.031646609306335449e-01,-1.529837369918823242e+00,1.620000000000000000e+02
-1.192751143869381849e+03,-2.396580496197315824e+03,4.286494436588518511e+02,4.356804088681101348e+02,-2.626188944140954845e+03,-2.517057431921291027e+03,9.039594399621699267e+03,-1.140741168440608817e+02,9.408499717712402344e+00,-8.031646609306335449e-01,-1.529837369918823242e+00,1.630000000000000000e+02
-9.826330509856161370e+02,-2.483093889848775689e+03,3.369575815186535692e+02,4.195581013994797104e+02,-2.640810087115606621e+03,-2.593904222470544482e+03,8.750064930386419292e+03,-2.384944537554920316e+02,9.408499717712402344e+00,-8.031646609306335449e-01,-1.529837369918823242e+00,1.640000000000000000e+02
-9.433506028328411048e+02,-2.319812624776980556e+03,3.302484587135704714e+02,3.656386035387604352e+02,-2.591307407190330196e+03,-2.481141012749067158e+03,8.363442152576442822e+03,-1.819298662191240510e+02,9.408499717712402344e+00,-8.031646609306335449e-01,-1.529837369918823242e+00,1.650000000000000000e+02
-1.068206414086689620e+03,-2.040770955492324447e+03,4.425238489835910514e+02,3.774424032479346351e+02,-2.441886260017736276e+03,-2.234989938620190514e+03,7.951820357682929171e+03,1.113316411741561751e+01,9.408499717712402344e+00,-8.031646609306335449e-01,-1.529837369918823242e+00,1.660000000000000000e+02
-1.125358669046738214e+03,-1.939937564941188157e+03,5.430336174045996813e+02,4.672768505674057451e+02,-2.297011513731960804e+03,-2.097998847986772489e+03,7.844956357647042751e+03,1.070310106553142759e+02,9.408499717712402344e+00,-8.031646609306335449e-01,-1.529837369918823242e+00,1.670000000000000000e+02
-9.764384703270552563e+02,-2.064695988598089116e+03,5.165240882800999316e+02,5.387520539523893603e+02,-2.258288085910082373e+03,-2.163782973025445244e+03,7.711289234683221366e+03,4.705501280793214391e+00,9.408499717712402344e+00,-8.031646609306335449e-01,-1.529837369918823242e+00,1.680000000000000000e+02
-7.672492423527273786e+02,-2.151623497626887911e+03,4.209779476901348971e+02,5.198211726256358816e+02,-2.283093306102877250e+03,-2.247257802505002473e+03,7.132420274858584889e+03,-1.240918745431181378e+02,9.408499717712402344e+00,-8.031646609306335449e-01,-1.529837369918823242e+00,1.690000000000000000e+02
-7.263267783442806831e+02,-1.993320019726246755e+03,4.087199990703375079e+02,4.618896774310833280e+02,-2.241811285164190849e+03,-2.141161734784337568e+03,6.526191297998255322e+03,-7.145099876621588919e+01,9.408499717712402344e+00,-8.031646609306335449e-01,-1.529837369918823242e+00,1.700000000000000000e+02
-8.490400026080405951e+02,-1.725186393775185934e+03,5.182834128408785546e+02,4.680730417730246700e+02,-2.097191468976472606e+03,-1.902782907424354562e+03,6.403648080388904418e+03,1.189174871721966156e+02,9.408499717712402344e+00,-8.031646609306335449e-01,-1.529837369918823242e+00,1.710000000000000000e+02
-9.047809027706989582e+02,-1.635719396567468721e+03,6.202508398206955462e+02,5.510101430428858293e+02,-1.956446728551506567e+03,-1.773067226796768409e+03,6.403593522115535961e+03,2.123034576074078359e+02,9.408499717712402344e+00,-8.031646609306335449e-01,-1.529837369918823242e+00,1.720000000000000000e+02
-7.579463313403066422e+02,-1.766598255306758347e+03,5.938196763463056413e+02,6.173817437329662425e+02,-1.921897981750166764e+03,-1.841701125245879211e+03,5.998265392234661704e+03,1.092225095366420646e+02,9.408499717712402344e+00,-8.031646609306335449e-01,-1.529837369918823242e+00,1.730000000000000000e+02
-5.564107355393753096e+02,-1.856708956649852553e+03,4.942061103006444682e+02,5.990478449841803013e+02,-1.948777002545010873e+03,-1.924088523744426766e+03,5.412639058277472941e+03,-1.701276238784839734e+01,9.408499717712402344e+00,-8.031646609306335449e-01,-1.529837369918823242e+00,1.740000000000000000e+02
-5.255993904973147437e+02,-1.703819606469914106e+03,4.779937929067209552e+02,5.474856398444017032e+02,-1.908507549762751751e+03,-1.818652924509539389e+03,5.069486213681699155e+03,3.755068941899344281e+01,9.408499717712402344e+00,-8.031646609306335449e-01,-1.529837369918823242e+00,1.750000000000000000e+02
-6.556657762833501693e+02,-1.442993717695290343e+03,5.865002850698356269e+02,5.613800509116717876e+02,-1.767282295713322583e+03,-1.584938587388258384e+03,4.869243925965394737e+03,2.246642936236917194e+02,9.408499717712402344e+00,-8.031646609306335449e-01,-1.529837369918823242e+00,1.760000000000000000e+02
-7.159836042295191874e+02,-1.359884436000507321e+03,6.879421934204710851e+02,6.492866773307523545e+02,-1.631553753024656544e+03,-1.459074385250262822e+03,4.620873829334110269e+03,3.127741681500151572e+02,9.408499717712402344e+00,-8.031646609306335449e-01,-1.529837369918823242e+00,1.770000000000000000e+02
-5.747722686538727430e+02,-1.496732215632573116e+03,6.606281970770696716e+02,7.173493167962587904e+02,-1.600091231807077747e+03,-1.527567276205296366e+03,4.391340900567292920e+03,2.084706335171467799e+02,9.408499717712402344e+00,-8.031646609306335449e-01,-1.529837369918823242e+00,1.780000000000000000e+02
-3.796652237304169830e+02,-1.592992373386821328e+03,5.617568184962765372e+02,6.978665822401644618e+02,-1.628809266721093991e+03,-1.611066925891002938e+03,4.043760156984184505e+03,8.356749648829509169e+01,9.408499717712402344e+00,-8.031646609306335449e-01,-1.529837369918823242e+00,1.790000000000000000e+02
-3.519337709957117113e+02,-1.442690837586513226e+03,5.465046094534463919e+02,6.415597000608067901e+02,-1.593272956068038638e+03,-1.514110540909528481e+03,3.404986449121181067e+03,1.357277183605856408e+02,9.408499717712402344e+00,-8.031646609306335449e-01,-1.529837369918823242e+00,1.800000000000000000e+02
-4.816749826110399226e+02,-1.177880772276962489e+03,6.519428328407875597e+02,6.479324755181369255e+02,-1.461068729935498595e+03,-1.293285930681909122e+03,2.995438910399576343e+03,3.163951420457924542e+02,9.408499717712402344e+00,-8.031646609306335449e-01,-1.529837369918823242e+00,1.810000000000000000e+02
-5.432695256878314467e+02,-1.087626051370561981e+03,7.466633125051944262e+02,7.290955168382470220e+02,-1.336624278314464846e+03,-1.177133932724622809e+03,3.233732578304116032e+03,3.992621347454701208e+02,9.408499717712402344e+00,-8.031646609306335449e-01,-1.529837369918823242e+00,1.820000000000000000e+02
-4.070916769746481805e+02,-1.220065865048136402e+03,7.142270132341777753e+02,7.927570848876184755e+02,-1.316091320038995946e+03,-1.250924696243128437e+03,3.181696595116573008e+03,2.926733115179322340e+02,9.408499717712402344e+00,-8.031646609306335449e-01,-1.529837369918823242e+00,1.830000000000000000e+02
-2.171972092058404087e+02,-1.317016508283958046e+03,6.146731210979410207e+02,7.686250902225365280e+02,-1.352372419723221356e+03,-1.339390510381379045e+03,2.009583116969013645e+03,1.659742534443012119e+02,9.408499717712402344e+00,-8.031646609306335449e-01,-1.529837369918823242e+00,1.840000000000000000e+02
-1.915415538770666899e+02,-1.172387319492624101e+03,6.010352743868493235e+02,7.059799801498429588e+02,-1.318902095332641238e+03,-1.247504829041446555e+03,1.286473300681402179e+03,2.164162940991673167e+02,9.408499717712402344e+00,-8.031646609306335449e-01,-1.529837369918823242e+00,1.850000000000000000e+02
-3.211557397745345952e+02,-9.176253243500082135e+02,7.073988556185558991e+02,7.068880568656577452e+02,-1.185521174623356728e+03,-1.029181083351310917e+03,3.172914040423283950e+03,3.968590530662363562e+02,9.408499717712402344e+00,-8.031646609306335449e-01,-1.529837369918823242e+00,1.860000000000000000e+02
-3.829235678828672462e+02,-8.381703143935942535e+02,8.015876422944115802e+02,7.849414215927226905e+02,-1.061310930052597087e+03,-9.144288352636649506e+02,6.645752595459745862e+03,4.797269859718098814e+02,9.408499717712402344e+00,-7.266727685928344727e-01,-1.529837369918823242e+00,1.870000000000000000e+02
-2.485445399760110377e+02,-9.766721477249348027e+02,7.679155860898281389e+02,8.456927780154728680e+02,-1.043370710729138864e+03,-9.924817956345395942e+02,8.434288560033148315e+03,3.711290052960907815e+02,9.408499717712402344e+00,-7.266727685928344727e-01,-1.529837369918823242e+00,1.880000000000000000e+02
-6.241429276976487017e+01,-1.074860243071702826e+03,6.670086589052798445e+02,8.180217931489623879e+02,-1.082663228599739796e+03,-1.087546077846467597e+03,7.653436784251291101e+03,2.410460022334550558e+02,9.408499717712402344e+00,-7.266727685928344727e-01,-1.529837369918823242e+00,1.890000000000000000e+02
-4.200218369640697347e+01,-9.324184349988836402e+02,6.515906000108375338e+02,7.532859064998283429e+02,-1.053523246105596627e+03,-1.001595342624471414e+03,6.534575877364206463e+03,2.878892591919775441e+02,9.408499717712402344e+00,-7.266727685928344727e-01,-1.529837369918823242e+00,1.900000000000000000e+02
-1.771960956894081392e+02,-6.835615534593543998e+02,7.557663452877463897e+02,7.533790892710321714e+02,-9.278747194623665564e+02,-7.890899971385442768e+02,6.573881671453846138e+03,4.638954311208253785e+02,9.408499717712402344e+00,-7.266727685928344727e-01,-1.529837369918823242e+00,1.910000000000000000e+02
-2.447418415132160590e+02,-6.107088116649906624e+02,8.491793479392435984e+02,8.293632129157958843e+02,-8.122905241207881772e+02,-6.811726823261888057e+02,6.846113295421162547e+03,5.425321027542158845e+02,9.408499717712402344e+00,-7.266727685928344727e-01,-1.529837369918823242e+00,1.920000000000000000e+02
-1.176918972521116302e+02,-7.544468408163911590e+02,8.174896316477006621e+02,8.880731209615396438e+02,-7.997920670126186451e+02,-7.638550342646326499e+02,6.361427061312881960e+03,4.330733440150083879e+02,9.408499717712402344e+00,-7.266727685928344727e-01,-1.529837369918823242e+00,1.930000000000000000e+02
5.896910629476587928e+01,-8.573264509231244119e+02,7.184889102580004874e+02,8.624749022887472165e+02,-8.427766748477365581e+02,-8.586801798912906634e+02,5.615530128915108435e+03,3.049705177297582850e+02,9.408499717712402344e+00,-7.266727685928344727e-01,-1.529837369918823242e+00,1.940000000000000000e+02
6.931431948382032715e+01,-7.183255499475199031e+02,7.005051751492437688e+02,8.030886391531362278e+02,-8.196659824893699806e+02,-7.711618789820381608e+02,5.315875881081771695e+03,3.522998790550423109e+02,9.408499717712402344e+00,-7.266727685928344727e-01,-1.529837369918823242e+00,1.950000000000000000e+02
-7.458754401050191518e+01,-4.705721838060626396e+02,7.984516717160004191e+02,8.066960816167174926e+02,-7.014275650269291873e+02,-5.602634500914527962e+02,5.284486438303156319e+03,5.266136438668199844e+02,9.408499717712402344e+00,-7.266727685928344727e-01,-1.529837369918823242e+00,1.960000000000000000e+02
-1.489588329732023340e+02,-3.990760207294583779e+02,8.874991784595090394e+02,8.831228896195175366e+02,-5.904704679102342197e+02,-4.560466732524450890e+02,5.072783825600624368e+03,6.050308772331823093e+02,9.408499717712402344e+00,-7.266727685928344727e-01,-1.529837369918823242e+00,1.970000000000000000e+02
-2.726769006074937352e+01,-5.476081168399223316e+02,8.556705919247237944e+02,9.420134930516542227e+02,-5.796108753484486442e+02,-5.412518816526339833e+02,4.665735032689395666e+03,4.973560988632689259e+02,9.408499717712402344e+00,-7.266727685928344727e-01,-1.529837369918823242e+00,1.980000000000000000e+02
1.455013368853988140e+02,-6.583786055620657862e+02,7.574329495365936964e+02,9.164169636000106038e+02,-6.244291316064141029e+02,-6.374052419801173528e+02,4.270242433073775828e+03,3.696499192188534835e+02,9.408499717712402344e+00,-7.266727685928344727e-01,-1.529837369918823242e+00,1.990000000000000000e+02
1.539790521462318793e+02,-5.286067118836999725e+02,7.379580475404641220e+02,8.546459992821623928e+02,-6.046849823425886825e+02,-5.518035728678637497e+02,3.924964970064862428e+03,4.151614704431503924e+02,9.408499717712402344e+00,-7.266727685928344727e-01,-1.529837369918823242e+00,2.000000000000000000e+02
1.030762258793129149e+01,-2.887069300126900089e+02,8.325616167441035032e+02,8.545569547230329590e+02,-4.909564139789099499e+02,-3.442922544121997817e+02,3.595957986538718615e+03,5.875282454756052175e+02,9.408499717712402344e+00,-7.266727685928344727e-01,-1.529837369918823242e+00,2.010000000000000000e+02
-6.276829768356219574e+01,-2.180650580215892660e+02,9.174142646379250436e+02,9.286951511267548085e+02,-3.861291432400757913e+02,-2.457372108805770949e+02,3.399729461579707277e+03,6.640833624546453393e+02,9.408499717712402344e+00,-7.266727685928344727e-01,-1.529837369918823242e+00,2.020000000000000000e+02
6.025532793047204905e+01,-3.583448282398610445e+02,8.807849306033044741e+02,9.858577962545891751e+02,-3.829293999261199133e+02,-3.395770350459461042e+02,3.337711920791860393e+03,5.536941720032637022e+02,9.408499717712402344e+00,-7.266727685928344727e-01,-1.529837369918823242e+00,2.030000000000000000e+02
2.347885604063039864e+02,-4.603937655736435772e+02,7.789302198527907422e+02,9.566744413665937827e+02,-4.346744646175675371e+02,-4.463307537395567124e+02,2.972928981967527761e+03,4.231499579906094368e+02,9.408499717712402344e+00,-7.266727685928344727e-01,-1.529837369918823242e+00,2.040000000000000000e+02
2.462735870025499025e+02,-3.320002676581266314e+02,7.595978713448121198e+02,8.898668032757550463e+02,-4.190151167325202550e+02,-3.713462462051338662e+02,2.105871919808443636e+03,4.658509759159305759e+02,9.408499717712402344e+00,-7.266727685928344727e-01,-1.529837369918823242e+00,2.050000000000000000e+02
1.058783765019097700e+02,-1.030529674405086098e+02,8.576639411263213333e+02,8.845811579935671034e+02,-3.064657387268325692e+02,-1.728299080061460700e+02,1.710456241594825769e+03,6.341306066665110848e+02,9.408499717712402344e+00,-7.266727685928344727e-01,-1.529837369918823242e+00,2.060000000000000000e+02
3.418003545584269887e+01,-4.530747164554827577e+01,9.459999352711802203e+02,9.529162749360775706e+02,-2.009549875576817612e+02,-7.964953648917344253e+01,2.996436476487796426e+03,7.065344730200808954e+02,9.408499717712402344e+00,-7.266727685928344727e-01,-1.529837369918823242e+00,2.070000000000000000e+02
1.561114260004842436e+02,-1.963285803931473765e+02,9.105922989167142987e+02,1.004280979054265117e+03,-1.969939932200518342e+02,-1.742648985425694264e+02,5.381231725827406990e+03,5.950091490090931075e+02,9.370253562927246094e+00,-8.796565532684326172e-01,-1.568083524703979492e+00,2.080000000000000000e+02
3.285984429596137488e+02,-3.056637880588953067e+02,8.075848386723428121e+02,9.719878059980092075e+02,-2.504039886263317385e+02,-2.804018323704258364e+02,6.850145082412994270e+03,4.654796058052950229e+02,9.370253562927246094e+00,-8.796565532684326172e-01,-1.568083524703979492e+00,2.090000000000000000e+02
3.385144965834952018e+02,-1.799585066218287466e+02,7.852455317011931584e+02,9.050857870278805422e+02,-2.397455234660428687e+02,-2.081770066652406967e+02,6.617750200845195650e+03,5.075335243792146684e+02,9.370253562927246094e+00,-8.796565532684326172e-01,-1.568083524703979492e+00,2.100000000000000000e+02
1.970137754928191498e+02,4.761712693879303515e+01,8.795070278918719850e+02,8.998318151849734932e+02,-1.334681802147929375e+02,-1.541250708268989911e+01,5.911987671025846794e+03,6.732918120487333908e+02,9.370253562927246094e+00,-8.796565532684326172e-01,-1.568083524703979492e+00,2.110000000000000000e+02
1.234024894909389332e+02,9.973532651140749294e+01,9.648789289164878937e+02,9.673740651944381170e+02,-3.314518002955082920e+01,7.385608435774474856e+01,5.851039533593308079e+03,7.441758733659930840e+02,9.370253562927246094e+00,-8.796565532684326172e-01,-1.568083524703979492e+00,2.120000000000000000e+02
2.408880557070178838e+02,-5.957889634192974881e+01,9.275840826547282632e+02,1.019366619806105973e+03,-3.307313552873074514e+01,-2.142900914307710991e+01,6.132319078644379260e+03,6.325098661210138289e+02,9.370253562927246094e+00,-8.796565532684326172e-01,-1.568083524703979492e+00,2.130000000000000000e+02
4.061976173433940858e+02,-1.733649933630038049e+02,8.222266706021455320e+02,9.897601005913288645e+02,-8.968669109933625805e+01,-1.288390099989251212e+02,6.143089463644620082e+03,5.025100205819992425e+02,9.370253562927246094e+00,-8.796565532684326172e-01,-1.568083524703979492e+00,2.140000000000000000e+02
4.089395168991923128e+02,-4.827033265510090132e+01,7.965333485273881706e+02,9.251244316717406946e+02,-8.169437733565473536e+01,-6.087264856067486107e+01,5.932306084294033099e+03,5.436148388515357510e+02,9.370253562927246094e+00,-8.796565532684326172e-01,-1.568083524703979492e+00,2.150000000000000000e+02
2.631546474214119371e+02,1.773010935051240722e+02,8.878139202486831891e+02,9.199926471363455676e+02,2.180687024584813116e+01,1.270060900010005298e+02,5.746309534442238146e+03,7.084205220621729495e+02,9.370253562927246094e+00,-8.796565532684326172e-01,-1.568083524703979492e+00,2.160000000000000000e+02
1.872773958935390510e+02,2.258430562918358646e+02,9.716628562594105460e+02,9.863172081839788916e+02,1.182429971238400412e+02,2.133731698816720836e+02,5.619349319367284807e+03,7.778165129592766789e+02,9.370253562927246094e+00,-8.796565532684326172e-01,-1.568083524703979492e+00,2.170000000000000000e+02
3.018235402945042551e+02,6.445136327801833431e+01,9.345957462930828115e+02,1.037092155287244168e+03,1.137581194077959026e+02,1.166546978945405044e+02,5.611656158908464022e+03,6.643907588221725291e+02,9.370253562927246094e+00,-8.796565532684326172e-01,-1.568083524703979492e+00,2.180000000000000000e+02
4.640910209270778068e+02,-5.271024596725078482e+01,8.316270466299383770e+02,1.006971016670382596e+03,5.330596907234939863e+01,7.890401738631680928e+00,5.722842228995715232e+03,5.333582954482337755e+02,9.370253562927246094e+00,-8.796565532684326172e-01,-1.568083524703979492e+00,2.190000000000000000e+02
4.666071729677014446e+02,6.230473720883583155e+01,8.090762850674250330e+02,9.426606487392423332e+02,5.804328743449491412e+01,7.452014800986762566e+01,5.693088163240701761e+03,5.732877035360975242e+02,9.370253562927246094e+00,-8.796565532684326172e-01,-1.568083524703979492e+00,2.200000000000000000e+02
3.232384754212457665e+02,2.737777512619468325e+02,9.000875926428107050e+02,9.377039715781597806e+02,1.573683185458967273e+02,2.611680057801236217e+02,5.404811257026141902e+03,7.354873852134428489e+02,9.370253562927246094e+00,-8.796565532684326172e-01,-1.568083524703979492e+00,2.210000000000000000e+02
2.490828581978453258e+02,3.139762288242600334e+02,9.785699042427936547e+02,1.002452883633005513e+03,2.486020891207833756e+02,3.455320388813393038e+02,5.178917628525487089e+03,8.026302739077855222e+02,9.370253562927246094e+00,-8.796565532684326172e-01,-1.568083524703979492e+00,2.220000000000000000e+02
3.632692712346956796e+02,1.551246223637826915e+02,9.355680389083918271e+02,1.049826856161747855e+03,2.396179464487174755e+02,2.450975562062317294e+02,5.270105903881612903e+03,6.897615812503618145e+02,9.370253562927246094e+00,-8.796565532684326172e-01,-1.568083524703979492e+00,2.230000000000000000e+02
5.248563182046154907e+02,4.645202354687762636e+01,8.308877883139850837e+02,1.016353090645008706e+03,1.758920066141572534e+02,1.305978130290980062e+02,5.434108647754183039e+03,5.603778957398317289e+02,9.370253562927246094e+00,-8.796565532684326172e-01,-1.568083524703979492e+00,2.240000000000000000e+02
5.276840300683120404e+02,1.678708184173667632e+02,8.094647043224524623e+02,9.503860625350935152e+02,1.763862945411024157e+02,1.895284735203508717e+02,5.327213961502039638e+03,5.989634341308480998e+02,9.370253562927246094e+00,-8.796565532684326172e-01,-1.568083524703979492e+00,2.250000000000000000e+02
3.852484746249056116e+02,3.811849599948282048e+02,9.010022818434033525e+02,9.452353318149980623e+02,2.686571579184806069e+02,3.671088852310756465e+02,5.026227677276981012e+03,7.562238645120280580e+02,9.370253562927246094e+00,-8.796565532684326172e-01,-1.568083524703979492e+00,2.260000000000000000e+02
3.125323023258920330e+02,4.209090420490658744e+02,9.801931313496686471e+02,1.009581607211227038e+03,3.516852752016627619e+02,4.426545187304491265e+02,4.867327084544184800e+03,8.182474252256563432e+02,9.370253562927246094e+00,-8.796565532684326172e-01,-1.568083524703979492e+00,2.270000000000000000e+02
4.292006386126349753e+02,2.593879285969353532e+02,9.397639599857807298e+02,1.054724899386107381e+03,3.364268884918078584e+02,3.356243230205234340e+02,4.962981064375368987e+03,7.026712149063107518e+02,9.370253562927246094e+00,-8.796565532684326172e-01,-1.568083524703979492e+00,2.280000000000000000e+02
5.943648453523283024e+02,1.434321023450806933e+02,8.366338233061603660e+02,1.017169667880856423e+03,2.688421488962746935e+02,2.176159582959603540e+02,5.088487460665116487e+03,5.722317555868744421e+02,9.370253562927246094e+00,-8.796565532684326172e-01,-1.568083524703979492e+00,2.290000000000000000e+02
6.015277943350783971e+02,2.546677144024095014e+02,8.120697640691107608e+02,9.471430753823842679e+02,2.664213443282994831e+02,2.751516585905678767e+02,4.993659769608631905e+03,6.097958177340030943e+02,9.370253562927246094e+00,-8.796565532684326172e-01,-1.568083524703979492e+00,2.300000000000000000e+02
4.635558575367804224e+02,4.613930134527586233e+02,8.973959559283414364e+02,9.398541418633860758e+02,3.566030328615700000e+02,4.514879097890268440e+02,4.722490528570589959e+03,7.662646240164897335e+02,9.370253562927246094e+00,-8.796565532684326172e-01,-1.568083524703979492e+00,2.310000000000000000e+02
3.935559118331998434e+02,5.009865563230819134e+02,9.715884474068668624e+02,1.004057653745388961e+03,4.390610391265315684e+02,5.249865953029834600e+02,4.557399071982088572e+03,8.286039845988709658e+02,9.370253562927246094e+00,-8.796565532684326172e-01,-1.568083524703979492e+00,2.320000000000000000e+02
5.089202487022366768e+02,3.413984575785311790e+02,9.287311024830260067e+02,1.049974093127043488e+03,4.236186710835800113e+02,4.161338811416076169e+02,4.642622713718426894e+03,7.136630979818394280e+02,9.332008361816406250e+00,-6.884268522262573242e-01,-1.606329321861267090e+00,2.330000000000000000e+02
6.691193630196858066e+02,2.246795197412589005e+02,8.252005046923827649e+02,1.013353261956682672e+03,3.543330932610331274e+02,2.973022336458914197e+02,4.780685916497250219e+03,5.824276059622757202e+02,9.332008361816406250e+00,-6.884268522262573242e-01,-1.606329321861267090e+00,2.340000000000000000e+02
6.710572409187061567e+02,3.327826636320141915e+02,8.028172127316270235e+02,9.438594753459233289e+02,3.484758679772835421e+02,3.529331849813004283e+02,4.696180428028273127e+03,6.174513007788514187e+02,9.332008361816406250e+00,-6.884268522262573242e-01,-1.606329321861267090e+00,2.350000000000000000e+02
5.300633009096363821e+02,5.361273306145376409e+02,8.924913295220610507e+02,9.362058277678679588e+02,4.341051313699745151e+02,5.239853825085237986e+02,4.421451309430112815e+03,7.706576619836212103e+02,9.332008361816406250e+00,-6.884268522262573242e-01,-1.606329321861267090e+00,2.360000000000000000e+02
4.579343163519206428e+02,5.721298902587059274e+02,9.700896386649126271e+02,9.999168585999996139e+02,5.113684175995122132e+02,5.913166056924173972e+02,4.257378400315663384e+03,8.297405516669232384e+02,9.332008361816406250e+00,-6.884268522262573242e-01,-1.606329321861267090e+00,2.370000000000000000e+02
5.697706852781466296e+02,4.080436295078068270e+02,9.276655699739244483e+02,1.046835796986427795e+03,4.919127178918056416e+02,4.804636975254361460e+02,4.347236700391305931e+03,7.122011054644103751e+02,9.332008361816406250e+00,-6.884268522262573242e-01,-1.606329321861267090e+00,2.380000000000000000e+02
7.259296937754024839e+02,2.863032678004819900e+02,8.230897919475510207e+02,1.012183196341931762e+03,4.221659714191937383e+02,3.636569231614816999e+02,4.483935951634848607e+03,5.801261812008115157e+02,9.332008361816406250e+00,-6.884268522262573242e-01,-1.606329321861267090e+00,2.390000000000000000e+02
7.260347731532683611e+02,3.892855381294721155e+02,7.994644351565420948e+02,9.423321997007651589e+02,4.186194281034017877e+02,4.201640855039463531e+02,4.397640414702089402e+03,6.161503102076485447e+02,9.332008361816406250e+00,-6.884268522262573242e-01,-1.606329321861267090e+00,2.400000000000000000e+02
5.850729993751847360e+02,5.872945256584894196e+02,8.865331565650903940e+02,9.302452433952153115e+02,5.059158010385440321e+02,5.894361503735867700e+02,4.128135047653762740e+03,7.708939446058689100e+02,9.332008361816406250e+00,-6.884268522262573242e-01,-1.606329321861267090e+00,2.410000000000000000e+02
5.114042020598590170e+02,6.185944811664921872e+02,9.602486074737976196e+02,9.882648762146354784e+02,5.826749475096480637e+02,6.562292158487757661e+02,3.968613272111406332e+03,8.315643214662072751e+02,9.332008361816406250e+00,-6.884268522262573242e-01,-1.606329321861267090e+00,2.420000000000000000e+02
6.189415896478258219e+02,4.525929284752328385e+02,9.154161291206714850e+02,1.032095678047183355e+03,5.613639309153345494e+02,5.471034814260920029e+02,4.060047257196270948e+03,7.162962109415766463e+02,9.332008361816406250e+00,-6.884268522262573242e-01,-1.606329321861267090e+00,2.430000000000000000e+02
7.707520268460812076e+02,3.328406287244401938e+02,8.106042884100143056e+02,9.969911970645180190e+02,4.882646552414362304e+02,4.298974345341839580e+02,4.197448263552649223e+03,5.863801411724866739e+02,9.332008361816406250e+00,-6.884268522262573242e-01,-1.606329321861267090e+00,2.440000000000000000e+02
7.683673274796037731e+02,4.403033595394936128e+02,7.860392137029002697e+02,9.265927067290922423e+02,4.790144644005531518e+02,4.816060093750347733e+02,4.114104197695254697e+03,6.222927544805511388e+02,9.332008361816406250e+00,-6.884268522262573242e-01,-1.606329321861267090e+00,2.450000000000000000e+02
6.253356721758227650e+02,6.433967018773960262e+02,8.704769209846767808e+02,9.125850884219853469e+02,5.595897420306791901e+02,6.444358935388609098e+02,3.849628733469900908e+03,7.743864173879514965e+02,9.332008361816406250e+00,-6.884268522262573242e-01,-1.606329321861267090e+00,2.460000000000000000e+02
5.483904066740642520e+02,6.799795340012365159e+02,9.429648022723949907e+02,9.679281594962676536e+02,6.315758095249339021e+02,7.051478817573079141e+02,3.694660453650001728e+03,8.320658969194901147e+02,9.332008361816406250e+00,-6.884268522262573242e-01,-1.606329321861267090e+00,2.470000000000000000e+02
6.515005856856087121e+02,5.187081318107298102e+02,8.999572866409889684e+02,1.008835473309890403e+03,6.089853172130642633e+02,5.900006182546849232e+02,3.788959706971792912e+03,7.150780052424861424e+02,9.332008361816406250e+00,-6.884268522262573242e-01,-1.606329321861267090e+00,2.480000000000000000e+02
7.974771811288628669e+02,4.006599554074950902e+02,7.972315701205961886e+02,9.715243436414448297e+02,5.370269497997437611e+02,4.686002147217932361e+02,3.928546921508277592e+03,5.842917842821889280e+02,9.332008361816406250e+00,-6.884268522262573242e-01,-1.606329321861267090e+00,2.490000000000000000e+02
7.871253959360547015e+02,5.058501610850571524e+02,7.726116893017588154e+02,9.017276301925139705e+02,5.287612825771993812e+02,5.204705033653763167e+02,3.847949480318355199e+03,6.194671231215552325e+02,9.332008361816406250e+00,-6.884268522262573242e-01,-1.606329321861267090e+00,2.500000000000000000e+02
6.348959542244592740e+02,7.053220893825678104e+02,8.562373288748372033e+02,8.913327406039661582e+02,6.085313531813385453e+02,6.858010626165860231e+02,3.587011931138382351e+03,7.714509189839991450e+02,9.332008361816406250e+00,-6.884268522262573242e-01,-1.606329321861267090e+00,2.510000000000000000e+02
5.491897244923675316e+02,7.392483434488476632e+02,9.288876851180752965e+02,9.500372547352217225e+02,6.789390213818096527e+02,7.471461077003291393e+02,3.436043947860551270e+03,8.304960345001672977e+02,9.332008361816406250e+00,-6.884268522262573242e-01,-1.606329321861267090e+00,2.520000000000000000e+02
6.442779697594705794e+02,5.755141731373932998e+02,8.865980160998760766e+02,9.915938841798470094e+02,6.556195889900482143e+02,6.301324917402316714e+02,3.534507618920584719e+03,7.157162546860663497e+02,9.332008361816406250e+00,-6.884268522262573242e-01,-1.606329321861267090e+00,2.530000000000000000e+02
7.834134306914947956e+02,4.541503370294858541e+02,7.851202844143981565e+02,9.534961452815714438e+02,5.828937696940720343e+02,5.052713210625879583e+02,3.678365863540460850e+03,5.857918330097809303e+02,9.332008361816406250e+00,-6.884268522262573242e-01,-1.606329321861267090e+00,2.540000000000000000e+02
7.695356956509931479e+02,5.552326258625453193e+02,7.630356979109137683e+02,8.826881939902978047e+02,5.720318651196284918e+02,5.509919156345349620e+02,3.602374417931869175e+03,6.190990709927023090e+02,9.332008361816406250e+00,-6.884268522262573242e-01,-1.606329321861267090e+00,2.550000000000000000e+02
6.179201714099090168e+02,7.492470792714298113e+02,8.484460984234992793e+02,8.697821371246445779e+02,6.479180142111035821e+02,7.086739326737269948e+02,3.346439249607043166e+03,7.674913281971780634e+02,9.332008361816406250e+00,-6.884268522262573242e-01,-1.606329321861267090e+00,2.560000000000000000e+02
5.342746397886767227e+02,7.773720632103731987e+02,9.185215330377168357e+02,9.248957696115303406e+02,7.144038181152736797e+02,7.666398317815910559e+02,3.200190929294090893e+03,8.230893126824203136e+02,9.332008361816406250e+00,-6.884268522262573242e-01,-1.606329321861267090e+00,2.570000000000000000e+02
6.305236724444603169e+02,6.120026808508546310e+02,8.704558593251695129e+02,9.653688270790607930e+02,6.866798603144006847e+02,6.529338601423532964e+02,3.301875874933455634e+03,7.059644385233386856e+02,9.332008361816406250e+00,-6.884268522262573242e-01,-1.606329321861267090e+00,2.580000000000000000e+02
7.719090454783017776e+02,4.940217620485327643e+02,7.654183538518882415e+02,9.296622468481018586e+02,6.093158030041340680e+02,5.326533068579865358e+02,3.448623989762571000e+03,5.752308806664041185e+02,9.332008361816406250e+00,-6.884268522262573242e-01,-1.606329321861267090e+00,2.590000000000000000e+02
7.646818006471221452e+02,5.958751135158609031e+02,7.432937580054076534e+02,8.610591390109329950e+02,5.956048599649711832e+02,5.792334504277332599e+02,3.376798831903746759e+03,6.091492176216916050e+02,9.446745872497558594e+00,-7.266727685928344727e-01,-1.568083524703979492e+00,2.600000000000000000e+02
6.225041364393491676e+02,7.829468192778340381e+02,8.279838419049456206e+02,8.480136115028326458e+02,6.703447206179835121e+02,7.357183787444400878e+02,3.126131514539287309e+03,7.581033371836520018e+02,9.446745872497558594e+00,-7.266727685928344727e-01,-1.568083524703979492e+00,2.610000000000000000e+02
5.436673526213726291e+02,8.032239991583483061e+02,8.956383364161611098e+02,9.024629468220082344e+02,7.351330853810059125e+02,7.931040755107260338e+02,2.983431048402340821e+03,8.134139382916550858e+02,9.446745872497558594e+00,-7.266727685928344727e-01,-1.568083524703979492e+00,2.620000000000000000e+02
6.328940009426733013e+02,6.365755026285769418e+02,8.478747722626503673e+02,9.425448831184194205e+02,7.059782926933166891e+02,6.786217158886520338e+02,3.085317074506776407e+03,6.973255197919297643e+02,9.446745872497558594e+00,-7.266727685928344727e-01,-1.568083524703979492e+00,2.630000000000000000e+02
7.547293703552604711e+02,5.200202923327597091e+02,7.467323391797399381e+02,9.055267011269834256e+02,6.306122088746378722e+02,5.573935074742339566e+02,3.230285763236242929e+03,5.708431581032946269e+02,9.446745872497558594e+00,-7.266727685928344727e-01,-1.568083524703979492e+00,2.640000000000000000e+02
7.213965861262258841e+02,6.203695444780769321e+02,7.267851390620608072e+02,8.361412499205971471e+02,6.215642612973824725e+02,6.050927039674807020e+02,3.158559527480054385e+03,6.098866244463879411e+02,9.446745872497558594e+00,-7.266727685928344727e-01,-1.568083524703979492e+00,2.650000000000000000e+02
5.545685991850805294e+02,8.066381147611245979e+02,8.104993672535001679e+02,8.255732428747687663e+02,6.999526312449997931e+02,7.638590585214860766e+02,2.911211646797943104e+03,7.619517678703850834e+02,9.446745872497558594e+00,-7.266727685928344727e-01,-1.568083524703979492e+00,2.660000000000000000e+02
4.589127679835528397e+02,8.305286255914716094e+02,8.798890605413580488e+02,8.837440601992038864e+02,7.668812843369014445e+02,8.207611328429675268e+02,2.773222540369719354e+03,8.197378402487811400e+02,9.446745872497558594e+00,-7.266727685928344727e-01,-1.568083524703979492e+00,2.670000000000000000e+02
5.423970416063657467e+02,6.666927253975482017e+02,8.386774583975375208e+02,9.243940611840907877e+02,7.395476733526447788e+02,7.027413300224179693e+02,2.879537703090354626e+03,7.071918680244079951e+02,9.446745872497558594e+00,-7.266727685928344727e-01,-1.568083524703979492e+00,2.680000000000000000e+02
6.679679275476501061e+02,5.480943215260112993e+02,7.424521787318808492e+02,8.855954312680860312e+02,6.636273160753471529e+02,5.783394284767864519e+02,3.028896019544474257e+03,5.821783964713122259e+02,9.446745872497558594e+00,-7.266727685928344727e-01,-1.568083524703979492e+00,2.690000000000000000e+02
6.415951013624926418e+02,6.464035256958122773e+02,7.221072270301083336e+02,8.163161053904932487e+02,6.497425882665838799e+02,6.239249935998068395e+02,2.962068796853840468e+03,6.172571039484701032e+02,9.446745872497558594e+00,-7.266727685928344727e-01,-1.568083524703979492e+00,2.700000000000000000e+02
4.789440342941143172e+02,8.339783462781824710e+02,8.051836522921630603e+02,8.075374867431910388e+02,7.221794760203501937e+02,7.795792537923716736e+02,2.719525477872219199e+03,7.625532554342662479e+02,9.446745872497558594e+00,-7.266727685928344727e-01,-1.568083524703979492e+00,2.710000000000000000e+02
3.837084902352726203e+02,8.578001988001306017e+02,8.769235666463118832e+02,8.655203377508332778e+02,7.856565805919517516e+02,8.330664296477689277e+02,2.585047339920049126e+03,8.154924571465644476e+02,9.446745872497558594e+00,-7.266727685928344727e-01,-1.568083524703979492e+00,2.720000000000000000e+02
4.669196582078293432e+02,6.897920767132827677e+02,8.363667532397548712e+02,9.039448770516337390e+02,7.558233099447470522e+02,7.138550085795668565e+02,2.693344860027689720e+03,7.002971800018340218e+02,9.446745872497558594e+00,-7.266727685928344727e-01,-1.568083524703979492e+00,2.730000000000000000e+02
5.949407953599329630e+02,5.671957465380100984e+02,7.363750097641704997e+02,8.636288306277492666e+02,6.757826183986690012e+02,5.893477899111076113e+02,2.844052334832707857e+03,5.727124191586326560e+02,9.446745872497558594e+00,-7.266727685928344727e-01,-1.568083524703979492e+00,2.740000000000000000e+02
5.756693425698285864e+02,6.636146489452885362e+02,7.125091144056759731e+02,7.929777636306480417e+02,6.577951691001089785e+02,6.324872108015160848e+02,2.779036933776191290e+03,6.056182238643641540e+02,9.446745872497558594e+00,-7.266727685928344727e-01,-1.568083524703979492e+00,2.750000000000000000e+02
4.239655035510331800e+02,8.477732112054482059e+02,7.950489496114223584e+02,7.803145497189088928e+02,7.286372528602696548e+02,7.837964035402383161e+02,2.538938741878053406e+03,7.504578027324969298e+02,9.446745872497558594e+00,-7.266727685928344727e-01,-1.568083524703979492e+00,2.760000000000000000e+02
3.395399885636907129e+02,8.662426596993173007e+02,8.656102217598290736e+02,8.332723649417657725e+02,7.919836032776292996e+02,8.350128834806464511e+02,2.406613080708011694e+03,8.038905228616613385e+02,9.446745872497558594e+00,-7.266727685928344727e-01,-1.568083524703979492e+00,2.770000000000000000e+02
4.295899401829192357e+02,6.954992122585272227e+02,8.218365193000900035e+02,8.699477207408199320e+02,7.612493483100624871e+02,7.167546506166645486e+02,2.515920936283335323e+03,6.887166859701746944e+02,9.446745872497558594e+00,-7.266727685928344727e-01,-1.568083524703979492e+00,2.780000000000000000e+02
5.603984817020027549e+02,5.736554063505836893e+02,7.201448022124195631e+02,8.319791258703444328e+02,6.793369587237102678e+02,5.929937592343103461e+02,2.666991791198579449e+03,5.606121345514375207e+02,9.446745872497558594e+00,-7.266727685928344727e-01,-1.568083524703979492e+00,2.790000000000000000e+02
5.417722911804885371e+02,6.697744641918488924e+02,6.961462752077941332e+02,7.643919260962920816e+02,6.591260126283723366e+02,6.340745738147925294e+02,2.603290704824874410e+03,5.929457780034936150e+02,9.446745872497558594e+00,-7.266727685928344727e-01,-1.568083524703979492e+00,2.800000000000000000e+02
3.890991179443699366e+02,8.500416397420049179e+02,7.756868531621203147e+02,7.538173027025350166e+02,7.274180322688516753e+02,7.827911926709821273e+02,2.366339652230624779e+03,7.378467372273125875e+02,9.446745872497558594e+00,-7.266727685928344727e-01,-1.568083524703979492e+00,2.810000000000000000e+02
3.021565532881650142e+02,8.628766435988154626e+02,8.405799786675961514e+02,8.095833058918724419e+02,7.884640793694507011e+02,8.346810475453330582e+02,2.237673683223616536e+03,7.934037770788381749e+02,9.446745872497558594e+00,-7.266727685928344727e-01,-1.568083524703979492e+00,2.820000000000000000e+02
3.895861372764120460e+02,6.863757452786467184e+02,7.939037230069206998e+02,8.502690926977502386e+02,7.570326719418608263e+02,7.201152370489853638e+02,2.348744622436650388e+03,6.828468613133291001e+02,9.446745872497558594e+00,-7.266727685928344727e-01,-1.568083524703979492e+00,2.830000000000000000e+02
5.192239528377976967e+02,5.585846222696454788e+02,6.936592742593893490e+02,8.150119771315821708e+02,6.762710079918961128e+02,5.993312814771907142e+02,2.499311666276546021e+03,5.593316566467537996e+02,9.446745872497558594e+00,-7.266727685928344727e-01,-1.568083524703979492e+00,2.840000000000000000e+02
5.015519510784615704e+02,6.495146870373764614e+02,6.719733099163768202e+02,7.472474413218642439e+02,6.574190535683737835e+02,6.408015624487234163e+02,2.434754449122992810e+03,5.929040338978129512e+02,9.446745872497558594e+00,-7.266727685928344727e-01,-1.568083524703979492e+00,2.850000000000000000e+02
3.524438393894270121e+02,8.275121047008315145e+02,7.533326892201548617e+02,7.347887575347158418e+02,7.254960340572124551e+02,7.886427754149754037e+02,2.199159381332377961e+03,7.351662391922509414e+02,9.446745872497558594e+00,-7.266727685928344727e-01,-1.568083524703979492e+00,2.860000000000000000e+02
2.708622629321471322e+02,8.419315031614487452e+02,8.210933721119981783e+02,7.881355221473968413e+02,7.849074963185048546e+02,8.391280030633297429e+02,2.072750853238903801e+03,7.864680624493676078e+02,9.446745872497558594e+00,-7.266727685928344727e-01,-1.568083524703979492e+00,2.870000000000000000e+02
3.623125417686642322e+02,6.694129464328516406e+02,7.777623838975996478e+02,8.261720777541631833e+02,7.523872248353563918e+02,7.218194694346839242e+02,2.185203400792517641e+03,6.725567063013331790e+02,9.446745872497558594e+00,-7.266727685928344727e-01,-1.568083524703979492e+00,2.880000000000000000e+02
4.925543894985894440e+02,5.448680972606671276e+02,6.793239937536563957e+02,7.897358124104302988e+02,6.723437428037686914e+02,5.977635068117142509e+02,2.337608510026468139e+03,5.478828766626575089e+02,9.446745872497558594e+00,-7.266727685928344727e-01,-1.568083524703979492e+00,2.890000000000000000e+02
4.741119481400455697e+02,6.357856241152494476e+02,6.583516684084606823e+02,7.242365536527922814e+02,6.546698643724794238e+02,6.376457398850889149e+02,2.278097626305432641e+03,5.822241345211032240e+02,9.446745872497558594e+00,-7.266727685928344727e-01,-1.568083524703979492e+00,2.900000000000000000e+02
3.256885535527799220e+02,8.116809143048594706e+02,7.407627850380577001e+02,7.158986090681828500e+02,7.222419903608006280e+02,7.853887793437006621e+02,2.048850710274717130e+03,7.256393259258838953e+02,9.523238182067871094e+00,-6.501809358596801758e-01,-1.568083524703979492e+00,2.910000000000000000e+02
2.455476547528378433e+02,8.258816532754572108e+02,8.092512135237484472e+02,7.712403672251275566e+02,7.798218118646582298e+02,8.350449833467264398e+02,1.926904419315491396e+03,7.771814035828065244e+02,9.523238182067871094e+00,-6.501809358596801758e-01,-1.568083524703979492e+00,2.920000000000000000e+02
3.371018533748501795e+02,6.560143574307094241e+02,7.651579145684772811e+02,8.078210001971056045e+02,7.464023773826065735e+02,7.157356697807626915e+02,2.041544527692902193e+03,6.626591160274783761e+02,9.523238182067871094e+00,-6.501809358596801758e-01,-1.568083524703979492e+00,2.930000000000000000e+02
4.668974624994370970e+02,5.333430174198874738e+02,6.646916197856535291e+02,7.684026713653074694e+02,6.664631097233741457e+02,5.892375466166704427e+02,2.196055349725611450e+03,5.366314350451339124e+02,9.523238182067871094e+00,-6.501809358596801758e-01,-1.568083524703979492e+00,2.940000000000000000e+02
4.499976803578247200e+02,6.236524030718410359e+02,6.407376942965856870e+02,6.999907719976545195e+02,6.470956901874014875e+02,6.252016403323650593e+02,2.139385942902408715e+03,5.679754469936724490e+02,9.523238182067871094e+00,-6.501809358596801758e-01,-1.568083524703979492e+00,2.950000000000000000e+02
3.053009263771709811e+02,7.999516404480127676e+02,7.195609682146641717e+02,6.890743565928114549e+02,7.100863908543342404e+02,7.670243937654722686e+02,1.912542734613249195e+03,7.068492433428782533e+02,9.523238182067871094e+00,-6.501809358596801758e-01,-1.568083524703979492e+00,2.960000000000000000e+02
2.287248591671523172e+02,8.172682678483088239e+02,7.860076601872351603e+02,7.424911781374012207e+02,7.632317484187296941e+02,8.121171554313368688e+02,1.792070451401305036e+03,7.549947932157647301e+02,9.523238182067871094e+00,-6.501809358596801758e-01,-1.568083524703979492e+00,2.970000000000000000e+02
3.223658544301142683e+02,6.485618462287275179e+02,7.437321207839340786e+02,7.779322535979845270e+02,7.283342950465394097e+02,6.931842913580385357e+02,1.908102222736612021e+03,6.407086854261124245e+02,9.523238182067871094e+00,-6.501809358596801758e-01,-1.568083524703979492e+00,2.980000000000000000e+02
4.539722269375160977e+02,5.212018912785733846e+02,6.477738860542231123e+02,7.376720080873674306e+02,6.482656679530682595e+02,5.704516775821211922e+02,2.064570847618022526e+03,5.174093405241146684e+02,9.523238182067871094e+00,-6.501809358596801758e-01,-1.568083524703979492e+00,2.990000000000000000e+02
4.396449328413254989e+02,6.042573562859506637e+02,6.270915024955866102e+02,6.689196763108739106e+02,6.271339394990191067e+02,6.092073243072009063e+02,2.010539877375515061e+03,5.506896745418416685e+02,9.523238182067871094e+00,-6.501809358596801758e-01,-1.568083524703979492e+00,3.000000000000000000e+02
2.969531647553485527e+02,7.759364100684924779e+02,7.053987734790007380e+02,6.591883943617758632e+02,6.873258420990150626e+02,7.513503521998190990e+02,1.787169566227596079e+03,6.894933964484771423e+02,9.523238182067871094e+00,-6.501809358596801758e-01,-1.568083524703979492e+00,3.010000000000000000e+02
2.202989535785127373e+02,7.918618754701001308e+02,7.679384560717735440e+02,7.154167551913233183e+02,7.390958685381338000e+02,7.956163061146398832e+02,1.670686346271810180e+03,7.371034060863185005e+02,9.523238182067871094e+00,-6.501809358596801758e-01,-1.568083524703979492e+00,3.020000000000000000e+02
3.129072398988428176e+02,6.233548847923029825e+02,7.203030994905020634e+02,7.543583119903960323e+02,7.038219152552537707e+02,6.754069750958005898e+02,1.790076803478164948e+03,6.230463256877410458e+02,9.523238182067871094e+00,-6.501809358596801758e-01,-1.568083524703979492e+00,3.030000000000000000e+02
4.447195765169017250e+02,4.973325082735846081e+02,6.200237731756442372e+02,7.175921236146641604e+02,6.224050998280617932e+02,5.507486183765977330e+02,1.948579929945190088e+03,5.000494167889628443e+02,9.523238182067871094e+00,-6.501809358596801758e-01,-1.568083524703979492e+00,3.040000000000000000e+02
4.320366080878302455e+02,5.819783361842564773e+02,5.985292862558162597e+02,6.514296333336787939e+02,6.000490674800785200e+02,5.872130058293132606e+02,1.895899332090702956e+03,5.328284966416613315e+02,9.523238182067871094e+00,-6.501809358596801758e-01,-1.568083524703979492e+00,3.050000000000000000e+02
2.913280612447051681e+02,7.544692951181095850e+02,6.803958118469308829e+02,6.416774880091033992e+02,6.617931497541740100e+02,7.269079707568016602e+02,1.673906374214479001e+03,6.707354568287773873e+02,9.523238182067871094e+00,-6.501809358596801758e-01,-1.568083524703979492e+00,3.060000000000000000e+02
2.166791963002033299e+02,7.723048593473304209e+02,7.489566200770077558e+02,6.946755873630027054e+02,7.168937572715185524e+02,7.682715317702732136e+02,1.558408467109249614e+03,7.175879707709791546e+02,9.523238182067871094e+00,-6.501809358596801758e-01,-1.568083524703979492e+00,3.070000000000000000e+02
3.111526449994125869e+02,6.090719889549163781e+02,7.063471467017898249e+02,7.291534910484260763e+02,6.831181121515910490e+02,6.451422230610951374e+02,1.677983584577945294e+03,6.023893787311099004e+02,9.523238182067871094e+00,-6.501809358596801758e-01,-1.568083524703979492e+00,3.080000000000000000e+02
4.439821159429266118e+02,4.892700208899095742e+02,6.077487331339234515e+02,6.893012556777430291e+02,6.007960889887726808e+02,5.187900550086378644e+02,1.836956784380512545e+03,4.775998559612016834e+02,9.523238182067871094e+00,-6.501809358596801758e-01,-1.568083524703979492e+00,3.090000000000000000e+02
4.315871390763495583e+02,5.766864228823978920e+02,5.848028428961224563e+02,6.223362393668940058e+02,5.776782354429342377e+02,5.552785740650724620e+02,1.786023840487563575e+03,5.093563082263372053e+02,9.523238182067871094e+00,-6.501809358596801758e-01,-1.568083524703979492e+00,3.100000000000000000e+02
2.910968861506335088e+02,7.480218407742868294e+02,6.639025018002103025e+02,6.134747369606266147e+02,6.394817879122638260e+02,6.964930750780094968e+02,1.567395862190402113e+03,6.485529728918409091e+02,9.523238182067871094e+00,-6.501809358596801758e-01,-1.568083524703979492e+00,3.110000000000000000e+02
2.156378776852943702e+02,7.623913840702716698e+02,7.298781978896095097e+02,6.681023695579133346e+02,6.938048321275382477e+02,7.412610201796214824e+02,1.455176274639736221e+03,6.983560279731700575e+02,9.446745872497558594e+00,-7.649186849594116211e-01,-1.529837369918823242e+00,3.120000000000000000e+02
3.066846429434226593e+02,5.929639936128205591e+02,6.852554833899393998e+02,7.040383190571519663e+02,6.587272746854650904e+02,6.234863189783627604e+02,1.577109195545817784e+03,5.858678090677040018e+02,9.446745872497558594e+00,-7.649186849594116211e-01,-1.529837369918823242e+00,3.130000000000000000e+02
4.341525941442669136e+02,4.649138452919778501e+02,5.850326210519579035e+02,6.648840108177064394e+02,5.771992030308138055e+02,5.020776812158765097e+02,1.738155832681033644e+03,4.630418445347568195e+02,9.446745872497558594e+00,-7.649186849594116211e-01,-1.529837369918823242e+00,3.140000000000000000e+02
4.164914973846607609e+02,5.466561179799136880e+02,5.606697611460949702e+02,5.977188097295729676e+02,5.573814216164391837e+02,5.398293447930882394e+02,1.689707282842457062e+03,4.967496491451674956e+02,9.446745872497558594e+00,-7.649186849594116211e-01,-1.529837369918823242e+00,3.150000000000000000e+02
2.715875369987479644e+02,7.179146352633197239e+02,6.384420435024858307e+02,5.879788914268174267e+02,6.218170652791777684e+02,6.785958486535819247e+02,1.472416187946218997e+03,6.375245486521907878e+02,9.446745872497558594e+00,-7.649186849594116211e-01,-1.529837369918823242e+00,3.160000000000000000e+02
1.928001980877234018e+02,7.353427278213930549e+02,7.030897351172570779e+02,6.419269542875699699e+02,6.754176687123144802e+02,7.205987129387503956e+02,1.360253923162475985e+03,6.870409460772807506e+02,9.446745872497558594e+00,-7.649186849594116211e-01,-1.529837369918823242e+00,3.170000000000000000e+02
2.823206520157837076e+02,5.692256978472541959e+02,6.571314509712665313e+02,6.786842039461043896e+02,6.372802627577621024e+02,6.020964911463379394e+02,1.482598887585103512e+03,5.723532665474231180e+02,9.446745872497558594e+00,-7.649186849594116211e-01,-1.529837369918823242e+00,3.180000000000000000e+02
4.092416330490959808e+02,4.446508614054673671e+02,5.556969423948576150e+02,6.417102007921203040e+02,5.532591154393048782e+02,4.812644076235555985e+02,1.645539080546252080e+03,4.475966757463429531e+02,9.446745872497558594e+00,-7.649186849594116211e-01,-1.529837369918823242e+00,3.190000000000000000e+02
3.896671451415095362e+02,5.287788390333844291e+02,5.305753869346735883e+02,5.757360331361851422e+02,5.326347321902758267e+02,5.198200142415334994e+02,1.599568008856782399e+03,4.814559408618952148e+02,9.446745872497558594e+00,-7.649186849594116211e-01,-1.529837369918823242e+00,3.200000000000000000e+02
2.413720637796504889e+02,6.987874775295858853e+02,6.085261401531315641e+02,5.644545437413835316e+02,5.966950056541463709e+02,6.597714237092368421e+02,1.384244142284638656e+03,6.237745058575073926e+02,9.446745872497558594e+00,-7.649186849594116211e-01,-1.529837369918823242e+00,3.210000000000000000e+02
1.603183468990464462e+02,7.130145508278201305e+02,6.747010585532043478e+02,6.157317868787904445e+02,6.494642524518785649e+02,7.028737287556941737e+02,1.273851039340195712e+03,6.744040595509213745e+02,9.446745872497558594e+00,-7.649186849594116211e-01,-1.529837369918823242e+00,3.220000000000000000e+02
2.500843288663018029e+02,5.464818312451243401e+02,6.316369132833933691e+02,6.516837396586270188e+02,6.110128047425750992e+02,5.840104419449635316e+02,1.398162991015022271e+03,5.596817605047999677e+02,9.446745872497558594e+00,-7.649186849594116211e-01,-1.529837369918823242e+00,3.230000000000000000e+02
3.789878168316354277e+02,4.247702050920979673e+02,5.338432132488742354e+02,6.163481368985885638e+02,5.278871676953713177e+02,4.614897908654929779e+02,1.562667134961637203e+03,4.337792980688682292e+02,9.446745872497558594e+00,-7.649186849594116211e-01,-1.529837369918823242e+00,3.240000000000000000e+02
3.626374113651763764e+02,5.115941075301707315e+02,5.119262009153389954e+02,5.527988992575337761e+02,5.080278684721670288e+02,4.988331888066786632e+02,1.517648329222385655e+03,4.650297967218630220e+02,9.446745872497558594e+00,-7.649186849594116211e-01,-1.529837369918823242e+00,3.250000000000000000e+02
2.184654662605098565e+02,6.832989037976549298e+02,5.916301725238918152e+02,5.438711309843019990e+02,5.715893673099853913e+02,6.387022522570041474e+02,1.303555960392623092e+03,6.037828009023833147e+02,9.446745872497558594e+00,-7.649186849594116211e-01,-1.529837369918823242e+00,3.260000000000000000e+02
1.410268885416953708e+02,6.996564669275539927e+02,6.581703071305528283e+02,5.975113788013331941e+02,6.237408735972712748e+02,6.814348228001654206e+02,1.194881553279439686e+03,6.522988714105758845e+02,9.446745872497558594e+00,-7.649186849594116211e-01,-1.529837369918823242e+00,3.270000000000000000e+02
2.334229324952902971e+02,5.344244222055476712e+02,6.151658332430924929e+02,6.345465795485433773e+02,5.855502971148816869e+02,5.605286114262053161e+02,1.320135756696414319e+03,5.384565751321606513e+02,9.446745872497558594e+00,-7.649186849594116211e-01,-1.529837369918823242e+00,3.280000000000000000e+02
3.655197078144483385e+02,4.110702943953292561e+02,5.179692968344425026e+02,5.973307230571954278e+02,5.019203877273102989e+02,4.345318834072022582e+02,1.484134379136390635e+03,4.143710070819797693e+02,9.446745872497558594e+00,-7.649186849594116211e-01,-1.529837369918823242e+00,3.290000000000000000e+02
3.534105197865865193e+02,4.949752143391960999e+02,4.967793408813377027e+02,5.304563334301237774e+02,4.790725299346486281e+02,4.683209138942838763e+02,1.438508556246553781e+03,4.454145175324883894e+02,9.446745872497558594e+00,-7.649186849594116211e-01,-1.529837369918823242e+00,3.300000000000000000e+02
2.127472263801319059e+02,6.651571122351670056e+02,5.763924350717679772e+02,5.203982186874090985e+02,5.386362767809478100e+02,6.054283667131785478e+02,1.224226853183354251e+03,5.821466272509023838e+02,9.446745872497558594e+00,-7.649186849594116211e-01,-1.529837369918823242e+00,3.310000000000000000e+02
1.372967443671514047e+02,6.802584706681009266e+02,6.422755820157690323e+02,5.752251394125996740e+02,5.887744832415883138e+02,6.455599240923329489e+02,1.116758653811848490e+03,6.289689047974534333e+02,9.446745872497558594e+00,-7.649186849594116211e-01,-1.529837369918823242e+00,3.320000000000000000e+02
2.313051276329060784e+02,5.117283576913832803e+02,5.995487125909021415e+02,6.119260975411816617e+02,5.515397072637424571e+02,5.215594475944199075e+02,1.243067525228427257e+03,5.143479438135800592e+02,9.446745872497558594e+00,-7.649186849594116211e-01,-1.529837369918823242e+00,3.330000000000000000e+02
3.649386081024058512e+02,3.843655897012940841e+02,5.038808756428734341e+02,5.715298538865135924e+02,4.705139006773169967e+02,3.935439759861401399e+02,1.407266821166907903e+03,3.899349491515313275e+02,9.446745872497558594e+00,-7.649186849594116211e-01,-1.529837369918823242e+00,3.340000000000000000e+02
3.537822387602791423e+02,4.666496308204586967e+02,4.834540822664494044e+02,5.019297626961415517e+02,4.502350045088824118e+02,4.285258570807854994e+02,1.361944414355879417e+03,4.215599106946719985e+02,9.446745872497558594e+00,-7.649186849594116211e-01,-1.529837369918823242e+00,3.350000000000000000e+02
2.144245653308316832e+02,6.376922892728434817e+02,5.615786144526573480e+02,4.916024924250232289e+02,5.116777969254180789e+02,5.693411331008683192e+02,1.150180406037630746e+03,5.601608105232662638e+02,9.446745872497558594e+00,-7.649186849594116211e-01,-1.529837369918823242e+00,3.360000000000000000e+02
1.413261178117027157e+02,6.534953621067325003e+02,6.253209357600244402e+02,5.469242610173314461e+02,5.635803377216288936e+02,6.138166137141597574e+02,1.045524767036404228e+03,6.093925659179549257e+02,9.408499717712402344e+00,-7.649186849594116211e-01,-1.529837369918823242e+00,3.370000000000000000e+02
2.365695772768231109e+02,4.842449568255397025e+02,5.820103286224984913e+02,5.848292185929785774e+02,5.284122045811091084e+02,4.953263881243801734e+02,1.173358724704652559e+03,4.971719046892831102e+02,9.408499717712402344e+00,-7.649186849594116211e-01,-1.529837369918823242e+00,3.380000000000000000e+02
3.681550100627136999e+02,3.561669846381664684e+02,4.867794007607226376e+02,5.491927438405873545e+02,4.485169573630082596e+02,3.743568197335043806e+02,1.337732574328605551e+03,3.749765730559665826e+02,9.408499717712402344e+00,-7.649186849594116211e-01,-1.529837369918823242e+00,3.390000000000000000e+02
3.529434323030291125e+02,4.388740113359854149e+02,4.662194283781536797e+02,4.871643956442349008e+02,4.271560436037507316e+02,4.143800479176788940e+02,1.292485155325935921e+03,4.076107344031552202e+02,9.408499717712402344e+00,-7.649186849594116211e-01,-1.529837369918823242e+00,3.400000000000000000e+02
2.096471142924638116e+02,6.101494688766397303e+02,5.441575899345771177e+02,4.816209200388475438e+02,4.867424930501001654e+02,5.550872462008555885e+02,1.081281511615758063e+03,5.455697994168949663e+02,9.408499717712402344e+00,-7.649186849594116211e-01,-1.529837369918823242e+00,3.410000000000000000e+02
1.326834812924935250e+02,6.247651541700906819e+02,6.088805371802882291e+02,5.362364005474228179e+02,5.383892686978870188e+02,5.966003645291602879e+02,9.771827980519155972e+02,5.942857902439645841e+02,9.408499717712402344e+00,-7.649186849594116211e-01,-1.529837369918823242e+00,3.420000000000000000e+02
2.245097464982754900e+02,4.549051453067258990e+02,5.668969853121088818e+02,5.712610105084604584e+02,5.038764524111029459e+02,4.754682658699675812e+02,1.105890824413974769e+03,4.827613442740293976e+02,9.408499717712402344e+00,-7.649186849594116211e-01,-1.529837369918823242e+00,3.430000000000000000e+02
3.556029507898711017e+02,3.293395756850695761e+02,4.718579319156742713e+02,5.336532660493830917e+02,4.230950519813923165e+02,3.510458062769248500e+02,1.272720584706446971e+03,3.604765050368660013e+02,9.408499717712402344e+00,-7.649186849594116211e-01,-1.529837369918823242e+00,3.440000000000000000e+02
3.433674333387752995e+02,4.157823219313286245e+02,4.506252028621638601e+02,4.700809683254447009e+02,3.995960119562696491e+02,3.861620765831612516e+02,1.231520333978740382e+03,3.910079258203986683e+02,9.408499717712402344e+00,-7.649186849594116211e-01,-1.529837369918823242e+00,3.450000000000000000e+02
2.032857063704359462e+02,5.872280476586711302e+02,5.279307097509299638e+02,4.633500262934321654e+02,4.580223796967693488e+02,5.245872077079729934e+02,1.024278238568891538e+03,5.273184492569707800e+02,9.408499717712402344e+00,-7.649186849594116211e-01,-1.529837369918823242e+00,3.460000000000000000e+02
1.276304278283132589e+02,5.973439009616886324e+02,5.916821500053738419e+02,5.187635412019080832e+02,5.094572547501957160e+02,5.687575421861110954e+02,9.229760116720281076e+02,5.766031480737001402e+02,9.408499717712402344e+00,-7.649186849594116211e-01,-1.529837369918823242e+00,3.470000000000000000e+02
2.204428014963777969e+02,4.224594240348160383e+02,5.475860730330532533e+02,5.560012380687694531e+02,4.742373115988302743e+02,4.507677863554126816e+02,1.053908379066720954e+03,4.657143338433852477e+02,9.408499717712402344e+00,-7.649186849594116211e-01,-1.529837369918823242e+00,3.480000000000000000e+02
3.532574966341999243e+02,2.954846177980507491e+02,4.497248597025281924e+02,5.189410525406856323e+02,3.933478868637866981e+02,3.256879008300238638e+02,1.222998350981724798e+03,3.425656607929486199e+02,9.408499717712402344e+00,-7.649186849594116211e-01,-1.529837369918823242e+00,3.490000000000000000e+02
3.416121706148551311e+02,3.842094187849652371e+02,4.265348992197323241e+02,4.531776910710250377e+02,3.726581672291431460e+02,3.585439304119172448e+02,1.183475181737376261e+03,3.726674103025397926e+02,9.408499717712402344e+00,-7.649186849594116211e-01,-1.529837369918823242e+00,3.500000000000000000e+02
2.001395101383823203e+02,5.591924063010592363e+02,5.041007993116145371e+02,4.439002997440256877e+02,4.356590754811331863e+02,4.965146306880087650e+02,9.765092572723806370e+02,5.098395419600856258e+02,9.408499717712402344e+00,-7.649186849594116211e-01,-1.529837369918823242e+00,3.510000000000000000e+02
1.233814030106586870e+02,5.725375228320590395e+02,5.701151659861170629e+02,4.989224903888461995e+02,4.893702159119166026e+02,5.408603664751499309e+02,8.743809581367240753e+02,5.588543447957708850e+02,9.408499717712402344e+00,-7.649186849594116211e-01,-1.529837369918823242e+00,3.520000000000000000e+02
2.169788484537129989e+02,4.004810544442989340e+02,5.286070490440652065e+02,5.380187675551642315e+02,4.525420377789669146e+02,4.218256900590422447e+02,1.004516732264644816e+03,4.459719611482796608e+02,9.408499717712402344e+00,-7.649186849594116211e-01,-1.529837369918823242e+00,3.530000000000000000e+02
3.511154137347766664e+02,2.753562447742806398e+02,4.323995413763987017e+02,5.035131513226660900e+02,3.686666766330163227e+02,2.963847044780704891e+02,1.173666220042519853e+03,3.222379440608347068e+02,9.408499717712402344e+00,-7.649186849594116211e-01,-1.529837369918823242e+00,3.540000000000000000e+02
3.399800054192892276e+02,3.634775167497464281e+02,4.100182002469518920e+02,4.397286644253545091e+02,3.460152951765776379e+02,3.313932365876135009e+02,1.135079792052565608e+03,3.545208487101117498e+02,9.408499717712402344e+00,-7.649186849594116211e-01,-1.529837369918823242e+00,3.550000000000000000e+02
1.989463180654274765e+02,5.356171418184712820e+02,4.877104588666989002e+02,4.317160916504362831e+02,4.076336788873595651e+02,4.718835321747392300e+02,9.296457695766875986e+02,4.941127272383382660e+02,9.408499717712402344e+00,-7.649186849594116211e-01,-1.529837369918823242e+00,3.560000000000000000e+02
1.232970567222801037e+02,5.462382585608575027e+02,5.532664238401193870e+02,4.874711952149737044e+02,4.600565346659786883e+02,5.169277924869311391e+02,8.296777510271058418e+02,5.444108489431346243e+02,9.408499717712402344e+00,-7.649186849594116211e-01,-1.529837369918823242e+00,3.570000000000000000e+02
2.177638286252331454e+02,3.720622733221753151e+02,5.120934528330617468e+02,5.264937977918161778e+02,4.239023322441535129e+02,3.985967602260861895e+02,9.623781373699312098e+02,4.332491012451610004e+02,9.408499717712402344e+00,-7.649186849594116211e-01,-1.529837369918823242e+00,3.580000000000000000e+02
3.515567683904228033e+02,2.431974097501552023e+02,4.181687647709077282e+02,4.912889648160125944e+02,3.436336382678855443e+02,2.758466190587059828e+02,1.133573867726445314e+03,3.116395967236312572e+02,9.408499717712402344e+00,-7.649186849594116211e-01,-1.529837369918823242e+00,3.590000000000000000e+02
3.394459224693564465e+02,3.265628317124646856e+02,3.982758057609826210e+02,4.274088600379036507e+02,3.245779520013602450e+02,3.132553649146066164e+02,1.095649569708766649e+03,3.437444318531415774e+02,9.408499717712402344e+00,-7.649186849594116211e-01,-1.529837369918823242e+00,3.600000000000000000e+02
1.980309932609525276e+02,4.974686742996127577e+02,4.763221473489211348e+02,4.204454065619647736e+02,3.870441207649419084e+02,4.532318928711865738e+02,8.901187303067126777e+02,4.805002655244170455e+02,9.408499717712402344e+00,-7.649186849594116211e-01,-1.529837369918823242e+00,3.610000000000000000e+02
1.228613417063752422e+02,5.114492653167180833e+02,5.409319688660471002e+02,4.774853980455372948e+02,4.396741821798132150e+02,4.969873556770107825e+02,7.892585938575793989e+02,5.287839886864385335e+02,9.408499717712402344e+00,-7.649186849594116211e-01,-1.529837369918823242e+00,3.620000000000000000e+02
2.182099845357151935e+02,3.405639110701522441e+02,4.992907270342802803e+02,5.180477661640834413e+02,4.059351406801288249e+02,3.797302244057864300e+02,9.220409684839833062e+02,4.186110839455432142e+02,9.408499717712402344e+00,-7.649186849594116211e-01,-1.529837369918823242e+00,3.630000000000000000e+02
3.535088024753204081e+02,2.123648430651119270e+02,4.047229947452324268e+02,4.861745186502666911e+02,3.280424476971093100e+02,2.587578313285121112e+02,1.093346066326252185e+03,2.990698787231267488e+02,9.446745872497558594e+00,-8.031646609306335449e-01,-1.491591572761535645e+00,3.640000000000000000e+02
3.442305445199017413e+02,2.964706640336517012e+02,3.837437966511824925e+02,4.269946062332674046e+02,3.077658044873896870e+02,2.955145304908655817e+02,1.055361221428000135e+03,3.319722693668190914e+02,9.446745872497558594e+00,-8.031646609306335449e-01,-1.491591572761535645e+00,3.650000000000000000e+02
2.061782579115679255e+02,4.699085592748597264e+02,4.625459445121923636e+02,4.227471031208187924e+02,3.669696249137923587e+02,4.336496541966771474e+02,8.500719528931222158e+02,4.684505229889218754e+02,9.446745872497558594e+00,-8.031646609306335449e-01,-1.491591572761535645e+00,3.660000000000000000e+02
1.325765653097478207e+02,4.871018044802149234e+02,5.299920096866262611e+02,4.785613708859164035e+02,4.176990717241860693e+02,4.769825281952071236e+02,7.505321989907679381e+02,5.159322383174767310e+02,9.446745872497558594e+00,-8.031646609306335449e-01,-1.491591572761535645e+00,3.670000000000000000e+02
2.270697675564006204e+02,3.203200839308046852e+02,4.897187721112532017e+02,5.156132460369553883e+02,3.827009477818792220e+02,3.595154746592743322e+02,8.829336591962783132e+02,4.035923457488825079e+02,9.446745872497558594e+00,-8.031646609306335449e-01,-1.491591572761535645e+00,3.680000000000000000e+02
3.616275519237096887e+02,1.967002045280532911e+02,3.939107656280029914e+02,4.798314748045158922e+02,3.025426526849551010e+02,2.367760741836100351e+02,1.053109732219658326e+03,2.807641405923277489e+02,9.446745872497558594e+00,-8.031646609306335449e-01,-1.491591572761535645e+00,3.690000000000000000e+02
3.541500603644235525e+02,2.812326927989452088e+02,3.722088138426224759e+02,4.163504791393424966e+02,2.811721347527854959e+02,2.720506142683152575e+02,1.015902227067868807e+03,3.118884785904847377e+02,9.446745872497558594e+00,-8.031646609306335449e-01,-1.491591572761535645e+00,3.700000000000000000e+02
2.200006152568967082e+02,4.486545774055593938e+02,4.512941823893052060e+02,4.078457744650659151e+02,3.420670727287069894e+02,4.104180304716137471e+02,8.138577780884515960e+02,4.494989745073762606e+02,9.446745872497558594e+00,-8.031646609306335449e-01,-1.491591572761535645e+00,3.710000000000000000e+02
1.512811293583945371e+02,4.592687605446153611e+02,5.163135304847819498e+02,4.611233367055247072e+02,3.939589373950730078e+02,4.535366193334484706e+02,7.174877849017939297e+02,4.987927116498758551e+02,9.446745872497558594e+00,-8.031646609306335449e-01,-1.491591572761535645e+00,3.720000000000000000e+02
2.521540988778870087e+02,2.910917192676533887e+02,4.704989289875666145e+02,4.974331023695558542e+02,3.567981798493638053e+02,3.344747419416089542e+02,8.507878701311419718e+02,3.865794953271542909e+02,9.446745872497558594e+00,-8.031646609306335449e-01,-1.491591572761535645e+00,3.730000000000000000e+02
3.946324259572429582e+02,1.688019415682683757e+02,3.706049195514642633e+02,4.605650198371586157e+02,2.737011841747735161e+02,2.112535402493376750e+02,1.020043334252375644e+03,2.629511234197307203e+02,9.446745872497558594e+00,-8.031646609306335449e-01,-1.491591572761535645e+00,3.740000000000000000e+02
3.941589575463731308e+02,2.530611489492039254e+02,3.483117828425019979e+02,3.947546998415855342e+02,2.515272805190907093e+02,2.475945582126514637e+02,9.818748102067911532e+02,2.937123442913434701e+02,9.446745872497558594e+00,-8.031646609306335449e-01,-1.491591572761535645e+00,3.750000000000000000e+02
2.637509586348751327e+02,4.190282015634256823e+02,4.276904787605453748e+02,3.846959290781669552e+02,3.125946450492920121e+02,3.858080265015742043e+02,7.796073876737646060e+02,4.308353370111399272e+02,9.446745872497558594e+00,-8.031646609306335449e-01,-1.491591572761535645e+00,3.760000000000000000e+02
1.958770325028308434e+02,4.278043776903105027e+02,4.926589209429730545e+02,4.390396406045765616e+02,3.642696270760352490e+02,4.275724840516340919e+02,6.835188465237151831e+02,4.795972947493610263e+02,9.446745872497558594e+00,-8.031646609306335449e-01,-1.491591572761535645e+00,3.770000000000000000e+02
2.958078822728421073e+02,2.560233014208351960e+02,4.480563603146292735e+02,4.778936778978968505e+02,3.277065043981929193e+02,3.090149107125180308e+02,8.174667784895573277e+02,3.689795044909151329e+02,9.446745872497558594e+00,-8.031646609306335449e-01,-1.491591572761535645e+00,3.780000000000000000e+02
4.353147260062542045e+02,1.295718051418843970e+02,3.504144279671818367e+02,4.428804848341969773e+02,2.462290957779332530e+02,1.880485770406303345e+02,9.879259446270298213e+02,2.492204115920285403e+02,9.446745872497558594e+00,-8.031646609306335449e-01,-1.491591572761535645e+00,3.790000000000000000e+02
4.303686637196224183e+02,2.127163545111179701e+02,3.291474792023800546e+02,3.783907420578543679e+02,2.245860062769643264e+02,2.252709989423383377e+02,9.514404264943441376e+02,2.822977782386515173e+02,9.446745872497558594e+00,-8.031646609306335449e-01,-1.491591572761535645e+00,3.800000000000000000e+02
2.969271651733433828e+02,3.815267529235352413e+02,4.082431522422193666e+02,3.705998882344792946e+02,2.843555106363928644e+02,3.623373458606583881e+02,7.506596714038751088e+02,4.174612494493230770e+02,9.446745872497558594e+00,-8.031646609306335449e-01,-1.491591572761535645e+00,3.810000000000000000e+02
2.295460642502584960e+02,3.962341698444288340e+02,4.737791847849730402e+02,4.273695523214919376e+02,3.344086947965115542e+02,4.020732010410210933e+02,6.550745734026422724e+02,4.618649351273015782e+02,9.446745872497558594e+00,-8.031646609306335449e-01,-1.491591572761535645e+00,3.820000000000000000e+02
3.318813030382298166e+02,2.329554631699938909e+02,4.316037408789561596e+02,4.663137580984766828e+02,2.968149338380026165e+02,2.799780032116104849e+02,7.885039460692787543e+02,3.472006446180021157e+02,9.446745872497558594e+00,-8.031646609306335449e-01,-1.491591572761535645e+00,3.830000000000000000e+02
4.734039038287592120e+02,1.138512619278262719e+02,3.374336476370808668e+02,4.291206997633998981e+02,2.150991678190111998e+02,1.541450929880229523e+02,9.582863026296254247e+02,2.240656594865431543e+02,9.446745872497558594e+00,-8.031646609306335449e-01,-1.491591572761535645e+00,3.840000000000000000e+02
4.706719050789542962e+02,1.975529896273183112e+02,3.191669474879163317e+02,3.629073539577802876e+02,1.948714179488306399e+02,1.888162298171882867e+02,9.217925911979109515e+02,2.547902458956377814e+02,9.446745872497558594e+00,-8.031646609306335449e-01,-1.491591572761535645e+00,3.850000000000000000e+02
3.406679485267231939e+02,3.612293329585809261e+02,3.989720917780432501e+02,3.546533069244178478e+02,2.574979225854040124e+02,3.281877893040364143e+02,7.215614544851414394e+02,3.901242229522758862e+02,9.446745872497558594e+00,-8.031646609306335449e-01,-1.491591572761535645e+00,3.860000000000000000e+02
2.758852603702835040e+02,3.720981482464558212e+02,4.623432778239584877e+02,4.105842056465698988e+02,3.096190356255247025e+02,3.730634750217868714e+02,6.263921415407676250e+02,4.369756429931221646e+02,9.446745872497558594e+00,-8.031646609306335449e-01,-1.491591572761535645e+00,3.870000000000000000e+02
3.774624175449862378e+02,2.088120164374631713e+02,4.172635312797283405e+02,4.486886745841620723e+02,2.724015474441257538e+02,2.562284437733833329e+02,7.599091438050090801e+02,3.247508031933903112e+02,9.446745872497558594e+00,-8.031646609306335449e-01,-1.491591572761535645e+00,3.880000000000000000e+02
5.166454206082853489e+02,9.243731149886662024e+01,3.218424462861876236e+02,4.134596315832386608e+02,1.921473718237466528e+02,1.360541601244476624e+02,9.285931445473106578e+02,2.033601016126958712e+02,9.446745872497558594e+00,-8.031646609306335449e-01,-1.491591572761535645e+00,3.890000000000000000e+02
5.120516895381442737e+02,1.817206861858576303e+02,3.027020336120840511e+02,3.509763326577740372e+02,1.737504402711638249e+02,1.743878039151895791e+02,8.917004533497965895e+02,2.354796671272197273e+02,9.446745872497558594e+00,-8.031646609306335449e-01,-1.491591572761535645e+00,3.900000000000000000e+02
3.806553727683203761e+02,3.545808371434541186e+02,3.805916884420730639e+02,3.446098162840353325e+02,2.366401876178060775e+02,3.133684555196232395e+02,6.914900562647671904e+02,3.717226096005542786e+02,9.446745872497558594e+00,-8.031646609306335449e-01,-1.491591572761535645e+00,3.910000000000000000e+02
