F3,F4,C3,C4,P3,P4,Cz,Pz,Accel_x,Accel_y,Accel_z,Sample
-5.002220859751105309e-12,1.546140993013978004e-11,-3.637978807091712952e-12,1.409716787748038769e-11,-2.728484105318784714e-12,-2.000888343900442123e-11,-2.182787284255027771e-11,1.546140993013978004e-11,9.484992027282714844e+00,-6.119350194931030273e-01,-1.109132170677185059e+00,0.000000000000000000e+00
-6.784134726786292049e+02,-2.498761996724617802e+02,-5.874167071892250078e+02,-4.538666337515587657e+02,-3.862607446751371754e+02,-2.889257686948401442e+02,-5.044743023574819745e+02,-5.156656336732103227e+02,9.484992027282714844e+00,-6.119350194931030273e-01,-1.109132170677185059e+00,1.000000000000000000e+00
-1.028101386251380063e+03,-5.637567712591906002e+02,-1.078293723673084287e+03,-8.391685745531904104e+02,-8.376295110489079434e+02,-6.521142864964085675e+02,-1.344472199035101767e+03,-9.106480043385379304e+02,9.484992027282714844e+00,-6.119350194931030273e-01,-1.109132170677185059e+00,2.000000000000000000e+00
-1.066467424579323051e+03,-9.008338139927707289e+02,-1.412731856185169818e+03,-1.096218259932526507e+03,-1.253164888676414421e+03,-1.016269561424030826e+03,-2.150288265475820481e+03,-1.169459260405478290e+03,9.484992027282714844e+00,-6.119350194931030273e-01,-1.109132170677185059e+00,3.000000000000000000e+00
-9.992098628969029050e+02,-1.262792447238100522e+03,-1.653130219554963105e+03,-1.233545033618932621e+03,-1.553007085662070267e+03,-1.348352405906226522e+03,-2.572996194071755781e+03,-1.422215212247146155e+03,9.484992027282714844e+00,-6.119350194931030273e-01,-1.109132170677185059e+00,4.000000000000000000e+00
-9.782849891281116470e+02,-1.707934712976703622e+03,-1.930998759518621682e+03,-1.341547279670435728e+03,-1.828370243358575408e+03,-1.737219886221752859e+03,-3.085235041874976105e+03,-1.784410021726902869e+03,9.484992027282714844e+00,-6.119350194931030273e-01,-1.109132170677185059e+00,5.000000000000000000e+00
-1.069921512310742401e+03,-2.129694473166148782e+03,-2.254478019560579924e+03,-1.501227299486101174e+03,-2.152713773327470790e+03,-2.149841776309514898e+03,-3.985496832752555747e+03,-2.158820918734675615e+03,9.484992027282714844e+00,-6.119350194931030273e-01,-1.109132170677185059e+00,6.000000000000000000e+00
-1.382400175194441090e+03,-2.301647892582639543e+03,-2.477303329843493430e+03,-1.682209554335063785e+03,-2.419399180071869068e+03,-2.377252257595589526e+03,-4.702135773801563118e+03,-2.336343503877825242e+03,9.484992027282714844e+00,-6.119350194931030273e-01,-1.109132170677185059e+00,7.000000000000000000e+00
-1.973995065555630390e+03,-2.256512886346432424e+03,-2.524400632051440880e+03,-1.781008888065920473e+03,-2.526823039687438722e+03,-2.381024276330849716e+03,-4.945733933888082902e+03,-2.314014027219069703e+03,9.484992027282714844e+00,-6.119350194931030273e-01,-1.109132170677185059e+00,8.000000000000000000e+00
-2.665881480272322733e+03,-2.318256501111477519e+03,-2.526379777189591550e+03,-1.767673463060506037e+03,-2.569332490436243461e+03,-2.419772011396168182e+03,-5.421281786913781616e+03,-2.334749363484204423e+03,9.484992027282714844e+00,-6.119350194931030273e-01,-1.109132170677185059e+00,9.000000000000000000e+00
-3.199379185338892057e+03,-2.629877988749890847e+03,-2.640312512256144146e+03,-1.740719657906548036e+03,-2.697940547115089430e+03,-2.669881172633155074e+03,-6.492114462224265480e+03,-2.547833444082724782e+03,9.484992027282714844e+00,-6.119350194931030273e-01,-1.109132170677185059e+00,1.000000000000000000e+01
-3.640388676445966212e+03,-2.926187357795957723e+03,-2.827307595317725827e+03,-1.796124721200355907e+03,-2.895174723401890333e+03,-2.953866303032856194e+03,-7.444973622229454122e+03,-2.793913982461310752e+03,9.484992027282714844e+00,-6.119350194931030273e-01,-1.109132170677185059e+00,1.100000000000000000e+01
-4.348982460930408706e+03,-2.924942878445448059e+03,-2.912392813637401559e+03,-1.886238608765842855e+03,-3.010561099615871171e+03,-3.009544785763469918e+03,-7.948407275885840136e+03,-2.834530333296916524e+03,9.484992027282714844e+00,-6.119350194931030273e-01,-1.109132170677185059e+00,1.200000000000000000e+01
-5.372867904160317266e+03,-2.742767734077442583e+03,-2.838381514668397813e+03,-1.890284964024965575e+03,-2.987689158463035710e+03,-2.877574719812869262e+03,-8.576834135487555614e+03,-2.694871696814532243e+03,9.484992027282714844e+00,-6.119350194931030273e-01,-1.109132170677185059e+00,1.300000000000000000e+01
-6.281033883323050759e+03,-2.733824012983464854e+03,-2.754644425980269261e+03,-1.801170416207104836e+03,-2.953180713822507641e+03,-2.844596016307871650e+03,-9.269641364296572647e+03,-2.635507590719242216e+03,9.484992027282714844e+00,-6.119350194931030273e-01,-1.109132170677185059e+00,1.400000000000000000e+01
-6.941158670153199637e+03,-2.984446285694285507e+03,-2.804241561811943939e+03,-1.729818648810869490e+03,-3.028419121416098278e+03,-3.030610943401860368e+03,-9.421112089435311646e+03,-2.784503003593285030e+03,9.484992027282714844e+00,-6.119350194931030273e-01,-1.109132170677185059e+00,1.500000000000000000e+01
-7.753745269486442339e+03,-3.185412804582142599e+03,-2.915770364291642181e+03,-1.730401167542690473e+03,-3.142790973114018925e+03,-3.214652253037087121e+03,-9.606033160425999085e+03,-2.951200890505746429e+03,9.484992027282714844e+00,-6.119350194931030273e-01,-1.109132170677185059e+00,1.600000000000000000e+01
-8.596100013297855185e+03,-3.091429712476903660e+03,-2.922808234271702531e+03,-1.745110670414934248e+03,-3.161201243807040555e+03,-3.172100473944491569e+03,-1.060728550543318488e+04,-2.909333795660800206e+03,9.484992027282714844e+00,-6.119350194931030273e-01,-1.109132170677185059e+00,1.700000000000000000e+01
-8.746810227450296225e+03,-2.887488693162070376e+03,-2.816657940395522019e+03,-1.714033361963890457e+03,-3.105362579830762115e+03,-3.012115306786647125e+03,-1.150735044964148256e+04,-2.730537864030154196e+03,9.484992027282714844e+00,-6.119350194931030273e-01,-1.109132170677185059e+00,1.800000000000000000e+01
-8.554159316361325182e+03,-2.882381635323188220e+03,-2.727584004565855139e+03,-1.627543184123772789e+03,-3.074629679951365233e+03,-2.977201068154666245e+03,-1.163725847274981243e+04,-2.656089089503954710e+03,9.484992027282714844e+00,-6.119350194931030273e-01,-1.109132170677185059e+00,1.900000000000000000e+01
-9.278658168706779179e+03,-3.048853020720396671e+03,-2.720709156150543095e+03,-1.512838726707027263e+03,-3.071590903614140188e+03,-3.076798615443146446e+03,-1.230039642879897292e+04,-2.742473363579963461e+03,9.484992027282714844e+00,-6.119350194931030273e-01,-1.109132170677185059e+00,2.000000000000000000e+01
-1.051068803221853523e+04,-3.147723848853640447e+03,-2.757017222342054083e+03,-1.450062417928445939e+03,-3.082707270987854372e+03,-3.159508615574919531e+03,-1.368286479324718312e+04,-2.835595495935649524e+03,9.484992027282714844e+00,-6.119350194931030273e-01,-1.109132170677185059e+00,2.100000000000000000e+01
-1.050729766098549953e+04,-3.090927813162244092e+03,-2.768144689275584824e+03,-1.485269719653665334e+03,-3.129846323583017693e+03,-3.152391688235183210e+03,-1.394547169829182894e+04,-2.804181326323531721e+03,9.484992027282714844e+00,-6.119350194931030273e-01,-1.109132170677185059e+00,2.200000000000000000e+01
-9.722799706248777511e+03,-2.935575355429135016e+03,-2.675568610197216913e+03,-1.488394574018605454e+03,-3.113456005464237933e+03,-3.035470725840603336e+03,-1.377585255776659687e+04,-2.645394439700847215e+03,9.484992027282714844e+00,-6.119350194931030273e-01,-1.109132170677185059e+00,2.300000000000000000e+01
-1.019031042904616515e+04,-2.791543797802064546e+03,-2.493546094707441625e+03,-1.323300761969896485e+03,-2.939432726068042939e+03,-2.860210502213590189e+03,-1.572902249242610924e+04,-2.482429693909898560e+03,9.484992027282714844e+00,-6.119350194931030273e-01,-1.109132170677185059e+00,2.400000000000000000e+01
-1.117387160457888967e+04,-2.854393522258023950e+03,-2.422786638584171669e+03,-1.149150929323168612e+03,-2.837099757830466842e+03,-2.865069405149081831e+03,-1.773653768958433648e+04,-2.506821912730301847e+03,9.484992027282714844e+00,-6.119350194931030273e-01,-1.109132170677185059e+00,2.500000000000000000e+01
-1.054295675327481513e+04,-3.114196844702145881e+03,-2.559834267516343971e+03,-1.188404699610844546e+03,-3.020731941250767704e+03,-3.122823345691494978e+03,-1.630136533967523246e+04,-2.701151900605365881e+03,9.484992027282714844e+00,-6.119350194931030273e-01,-1.109132170677185059e+00,2.600000000000000000e+01
-1.000767726626444346e+04,-3.097891509940586729e+03,-2.598350902288300858e+03,-1.254241707144730753e+03,-3.119058309573733823e+03,-3.165849516741875959e+03,-1.561198241382890774e+04,-2.698852525089353094e+03,9.484992027282714844e+00,-6.119350194931030273e-01,-1.109132170677185059e+00,2.700000000000000000e+01
-1.213160354787353208e+04,-2.586730031424490790e+03,-2.289991114304765688e+03,-1.046482828641299875e+03,-2.751042377494868560e+03,-2.695534981027966751e+03,-2.078271022126332173e+04,-2.327978847722819864e+03,9.484992027282714844e+00,-6.119350194931030273e-01,-1.109132170677185059e+00,2.800000000000000000e+01
-1.295122660556720075e+04,-2.389935237669839807e+03,-2.071296179337669400e+03,-8.521856950767469243e+02,-2.525824880690802274e+03,-2.467390021175979200e+03,-2.341524893097859604e+04,-2.131771320575934624e+03,9.484992027282714844e+00,-6.119350194931030273e-01,-1.109132170677185059e+00,2.900000000000000000e+01
-6.261429819874838358e+03,-3.388004561944976558e+03,-2.556982870158004516e+03,-1.246933901310774445e+03,-3.363408833407688689e+03,-3.408635152670981370e+03,-1.070085937614925933e+04,-2.714897261009472459e+03,9.484992027282714844e+00,-6.119350194931030273e-01,-1.109132170677185059e+00,3.000000000000000000e+01
5.108907399862052443e+03,-4.981814049378266645e+03,-3.489477802428547875e+03,-2.095910536836950087e+03,-4.887061091616510566e+03,-5.001189650083806555e+03,1.168189981258352964e+04,-3.707192562472238023e+03,9.484992027282714844e+00,-6.501809358596801758e-01,-1.109132170677185059e+00,3.100000000000000000e+01
1.167435197453214641e+04,-5.719678552495485746e+03,-3.976555595446478492e+03,-2.617420413165997161e+03,-5.741977401499025291e+03,-5.796744815454303534e+03,2.428909603556838192e+04,-4.155334877694829629e+03,9.484992027282714844e+00,-6.501809358596801758e-01,-1.109132170677185059e+00,3.200000000000000000e+01
1.082214788844607028e+04,-5.358986501613244400e+03,-3.760382506022315738e+03,-2.498274918852326664e+03,-5.524833531672964455e+03,-5.476190696597612259e+03,2.154105714505735159e+04,-3.874882748305728455e+03,9.484992027282714844e+00,-6.501809358596801758e-01,-1.109132170677185059e+00,3.300000000000000000e+01
8.740100871653252398e+03,-4.997681294475185496e+03,-3.451317388519335509e+03,-2.207213066341478225e+03,-5.138511353352254446e+03,-5.087369320699839591e+03,1.627246617324391991e+04,-3.583172574480358435e+03,9.484992027282714844e+00,-6.501809358596801758e-01,-1.109132170677185059e+00,3.400000000000000000e+01
9.236004466879589017e+03,-5.220982893842128760e+03,-3.480787854921691633e+03,-2.144308968498512058e+03,-5.206268385968555776e+03,-5.257690456044118037e+03,1.694574555161422904e+04,-3.704796756017812186e+03,9.484992027282714844e+00,-6.501809358596801758e-01,-1.109132170677185059e+00,3.500000000000000000e+01
9.810283735335013262e+03,-5.456243582723259351e+03,-3.602970398610063967e+03,-2.183403131434855823e+03,-5.372243199148206259e+03,-5.488517716832659971e+03,1.841157211948459371e+04,-3.881990429866837985e+03,9.484992027282714844e+00,-6.501809358596801758e-01,-1.109132170677185059e+00,3.600000000000000000e+01
8.790211977104834659e+03,-5.238017107907502577e+03,-3.519605817684355316e+03,-2.131568379668882699e+03,-5.268594704387259299e+03,-5.319917262349356861e+03,1.612166142394471535e+04,-3.754164305996762778e+03,9.484992027282714844e+00,-6.501809358596801758e-01,-1.109132170677185059e+00,3.700000000000000000e+01
8.120820395280448793e+03,-4.912494288989570123e+03,-3.328317678523882932e+03,-2.035047303883900895e+03,-5.086862984478553699e+03,-5.028757014730016635e+03,1.359640401617682073e+04,-3.493166887558720191e+03,9.484992027282714844e+00,-6.501809358596801758e-01,-1.109132170677185059e+00,3.800000000000000000e+01
8.667863706451506005e+03,-4.883528402364157955e+03,-3.221862837642689556e+03,-1.949281663907493567e+03,-5.036571951294221435e+03,-4.968578866093264878e+03,1.361968542001495734e+04,-3.398860180356854471e+03,9.484992027282714844e+00,-6.501809358596801758e-01,-1.109132170677185059e+00,3.900000000000000000e+01
8.959043666529525581e+03,-5.033238729264920039e+03,-3.210253149128531732e+03,-1.847581537689683046e+03,-5.032968311273056315e+03,-5.059326676934555508e+03,1.363412704064742502e+04,-3.471199928158735020e+03,9.484992027282714844e+00,-6.501809358596801758e-01,-1.109132170677185059e+00,4.000000000000000000e+01
8.581170149440396926e+03,-5.073198826581829053e+03,-3.219802124972081401e+03,-1.771766176034168438e+03,-5.002528226904450094e+03,-5.089190866256776644e+03,1.183754148192848152e+04,-3.524752501801008293e+03,9.484992027282714844e+00,-6.501809358596801758e-01,-1.109132170677185059e+00,4.100000000000000000e+01
8.495194007577701996e+03,-4.928775678378753582e+03,-3.183700145507819343e+03,-1.767662401314436465e+03,-4.970368403064552695e+03,-4.994651681806630222e+03,1.015481422134936292e+04,-3.437637217588337080e+03,9.484992027282714844e+00,-6.501809358596801758e-01,-1.109132170677185059e+00,4.200000000000000000e+01
8.693615745537606927e+03,-4.712523519872720499e+03,-3.054923139589654966e+03,-1.743263535205753669e+03,-4.894681993444891305e+03,-4.816712625347775429e+03,9.857557172117574737e+03,-3.241172196706834256e+03,9.484992027282714844e+00,-6.501809358596801758e-01,-1.109132170677185059e+00,4.300000000000000000e+01
8.539050332566785073e+03,-4.605838635384935515e+03,-2.894348623430149473e+03,-1.616229511365965209e+03,-4.760012641381448702e+03,-4.679895022993688144e+03,9.290933002684349049e+03,-3.097503867574901960e+03,9.484992027282714844e+00,-6.501809358596801758e-01,-1.109132170677185059e+00,4.400000000000000000e+01
8.313648799688184226e+03,-4.694911538357952850e+03,-2.838639538022301167e+03,-1.480082177942317685e+03,-4.684238755196982311e+03,-4.707686859793524491e+03,7.354109231034934965e+03,-3.127492982684538219e+03,9.484992027282714844e+00,-6.501809358596801758e-01,-1.109132170677185059e+00,4.500000000000000000e+01
8.488987564755654603e+03,-4.806151640553131983e+03,-2.883476149955230994e+03,-1.449719525047553816e+03,-4.710791883046651492e+03,-4.808035744845057707e+03,5.889978730128736061e+03,-3.217812021630451000e+03,9.484992027282714844e+00,-6.501809358596801758e-01,-1.109132170677185059e+00,4.600000000000000000e+01
8.671772993712369498e+03,-4.692877577513672804e+03,-2.859949196354664764e+03,-1.471562550183606163e+03,-4.698401958420508890e+03,-4.748411379098894031e+03,6.202204956265981309e+03,-3.147655547805219157e+03,9.484992027282714844e+00,-6.501809358596801758e-01,-1.109132170677185059e+00,4.700000000000000000e+01
8.424569656034440413e+03,-4.418728884111852494e+03,-2.697091656299849092e+03,-1.422611279783130385e+03,-4.562652703528759957e+03,-4.519802092945551522e+03,5.636196692765901389e+03,-2.920942614214207879e+03,9.484992027282714844e+00,-6.501809358596801758e-01,-1.109132170677185059e+00,4.800000000000000000e+01
8.084215288082154984e+03,-4.295423160268608626e+03,-2.535511609094465257e+03,-1.295307608197137142e+03,-4.420186504977960794e+03,-4.373884223641066455e+03,2.093053944738438986e+03,-2.776622593537141256e+03,9.484992027282714844e+00,-6.501809358596801758e-01,-1.109132170677185059e+00,4.900000000000000000e+01
8.168928324096295910e+03,-4.414832992376574111e+03,-2.508924405338500947e+03,-1.185414753441929861e+03,-4.390324585006414054e+03,-4.437232214388858665e+03,3.373736295084745507e+02,-2.835598610474732595e+03,9.484992027282714844e+00,-6.501809358596801758e-01,-1.109132170677185059e+00,5.000000000000000000e+01
8.674671495407597831e+03,-4.513719723423324467e+03,-2.554386527706051766e+03,-1.153420330464541848e+03,-4.420555308337527094e+03,-4.528102659536040846e+03,6.756259046482075973e+03,-2.928282380451842073e+03,9.484992027282714844e+00,-6.501809358596801758e-01,-1.109132170677185059e+00,5.100000000000000000e+01
9.175341172539447143e+03,-4.366773515666124695e+03,-2.517542674825684117e+03,-1.156934222082739780e+03,-4.385927569514952665e+03,-4.436357233581323271e+03,1.828153005569653760e+04,-2.846146074185893667e+03,9.446745872497558594e+00,-6.501809358596801758e-01,-1.070886254310607910e+00,5.200000000000000000e+01
9.309416916265592590e+03,-4.098589327439412955e+03,-2.365071051999657357e+03,-1.109938694584186123e+03,-4.260313217371863175e+03,-4.213428445054301847e+03,2.482377117931651082e+04,-2.629318117579807222e+03,9.446745872497558594e+00,-6.501809358596801758e-01,-1.070886254310607910e+00,5.300000000000000000e+01
9.155840549528735210e+03,-3.992875540423222446e+03,-2.218234585583798435e+03,-9.925077276521494696e+02,-4.134129726337563625e+03,-4.083285850681255397e+03,2.319933020634600689e+04,-2.499348657663989343e+03,9.446745872497558594e+00,-6.501809358596801758e-01,-1.070886254310607910e+00,5.400000000000000000e+01
9.090399228270704043e+03,-4.103360890334781288e+03,-2.187710868310702608e+03,-8.813140137264504119e+02,-4.093697466970450932e+03,-4.137454920421447241e+03,1.988349574203630618e+04,-2.554971570474068358e+03,9.446745872497558594e+00,-6.501809358596801758e-01,-1.070886254310607910e+00,5.500000000000000000e+01
9.213123594614598915e+03,-4.191062251238443423e+03,-2.227949486610229087e+03,-8.490701328336799634e+02,-4.112654916443016191e+03,-4.218632920101010313e+03,1.955933772165923438e+04,-2.642225479463441843e+03,9.446745872497558594e+00,-6.501809358596801758e-01,-1.070886254310607910e+00,5.600000000000000000e+01
9.230495099280369686e+03,-4.052821871929198096e+03,-2.198316606466094072e+03,-8.610130671380470631e+02,-4.084964949368602447e+03,-4.133000524939352545e+03,1.994338895698411579e+04,-2.564941846637861545e+03,9.446745872497558594e+00,-6.501809358596801758e-01,-1.070886254310607910e+00,5.700000000000000000e+01
9.010565063155561802e+03,-3.795880818014618399e+03,-2.054123283143435401e+03,-8.197228614800042124e+02,-3.966293035440843596e+03,-3.911838215611071519e+03,1.864058990195810838e+04,-2.351714531782140511e+03,9.446745872497558594e+00,-6.501809358596801758e-01,-1.070886254310607910e+00,5.800000000000000000e+01
8.823907373964306316e+03,-3.690262734252996324e+03,-1.910476207365484242e+03,-7.020335273268899527e+02,-3.838419064071900266e+03,-3.772162452398467394e+03,1.706896228843382778e+04,-2.218116094318127125e+03,9.446745872497558594e+00,-6.501809358596801758e-01,-1.070886254310607910e+00,5.900000000000000000e+01
8.886834874593727363e+03,-3.798338805477949791e+03,-1.885382900396650712e+03,-5.931634163290107153e+02,-3.799751935139081979e+03,-3.821243545028599783e+03,1.649274790123837374e+04,-2.271760608977801439e+03,9.446745872497558594e+00,-6.501809358596801758e-01,-1.070886254310607910e+00,6.000000000000000000e+01
9.003190174879729966e+03,-3.883881975173547744e+03,-1.932561317708534716e+03,-5.646242098537950369e+02,-3.823355739126389381e+03,-3.902755982610979572e+03,1.587462869956528812e+04,-2.360588043726942942e+03,9.446745872497558594e+00,-6.501809358596801758e-01,-1.070886254310607910e+00,6.100000000000000000e+01
8.933569880831812043e+03,-3.742622813316827433e+03,-1.906552261993193042e+03,-5.772539299297334310e+02,-3.796911700852422200e+03,-3.816863772350830459e+03,1.463077818880382256e+04,-2.284655610271320711e+03,9.446745872497558594e+00,-6.501809358596801758e-01,-1.070886254310607910e+00,6.200000000000000000e+01
8.722792077225727553e+03,-3.484813773652157124e+03,-1.762862513293977372e+03,-5.369407231767904705e+02,-3.676550168520193438e+03,-3.597531271057360755e+03,1.358036704682340132e+04,-2.071918458625441872e+03,9.446745872497558594e+00,-6.501809358596801758e-01,-1.070886254310607910e+00,6.300000000000000000e+01
8.582698182197249480e+03,-3.383208821960968635e+03,-1.618441938004955773e+03,-4.257503476368278825e+02,-3.545369762323978193e+03,-3.464836336129841584e+03,1.305359858762661679e+04,-1.938938984220058501e+03,9.446745872497558594e+00,-6.501809358596801758e-01,-1.070886254310607910e+00,6.400000000000000000e+01
8.611382230625516968e+03,-3.496824559689182024e+03,-1.590164123441289121e+03,-3.261442632794928613e+02,-3.498510557217014593e+03,-3.519267214031367985e+03,1.225672247058517860e+04,-1.991239414854109782e+03,9.446745872497558594e+00,-6.501809358596801758e-01,-1.070886254310607910e+00,6.500000000000000000e+01
8.695679241659918262e+03,-3.589788281536806153e+03,-1.634601497534732516e+03,-3.063078989629202624e+02,-3.513761158201542003e+03,-3.602962782185059041e+03,1.076014262502289421e+04,-2.078153615785921829e+03,9.446745872497558594e+00,-6.501809358596801758e-01,-1.070886254310607910e+00,6.600000000000000000e+01
8.649512339353599600e+03,-3.456334003981644855e+03,-1.608959615789016880e+03,-3.264521887642840738e+02,-3.483502207820315562e+03,-3.518764693278593313e+03,9.527383255960872702e+03,-2.002152811570747872e+03,9.446745872497558594e+00,-6.501809358596801758e-01,-1.070886254310607910e+00,6.700000000000000000e+01
8.449754587056158925e+03,-3.203168819035555316e+03,-1.468281769677953434e+03,-2.943260311490193999e+02,-3.362894478230224195e+03,-3.302122820991828121e+03,9.523463251161636435e+03,-1.791818431846948442e+03,9.446745872497558594e+00,-6.501809358596801758e-01,-1.070886254310607910e+00,6.800000000000000000e+01
8.285397331407033562e+03,-3.101298134594729163e+03,-1.327505246124569567e+03,-1.917586755893921691e+02,-3.232008935042557368e+03,-3.170998304858317169e+03,9.674873131339714746e+03,-1.661539483759592258e+03,9.446745872497558594e+00,-6.501809358596801758e-01,-1.070886254310607910e+00,6.900000000000000000e+01
8.307353034216939704e+03,-3.212207875230113132e+03,-1.302615689284740256e+03,-9.816529799662748701e+01,-3.186372389664222737e+03,-3.224285913122678267e+03,8.306929169644681679e+03,-1.714680056770019291e+03,9.446745872497558594e+00,-6.501809358596801758e-01,-1.070886254310607910e+00,7.000000000000000000e+01
8.405764320718793897e+03,-3.303284287853659862e+03,-1.349957508768660318e+03,-7.983026580620935420e+01,-3.205175015254117170e+03,-3.305503618695581736e+03,6.523246215746163216e+03,-1.801311693962652953e+03,9.446745872497558594e+00,-6.501809358596801758e-01,-1.070886254310607910e+00,7.100000000000000000e+01
8.358292159390959569e+03,-3.168266867526934220e+03,-1.326370940239314223e+03,-9.809927923468012523e+01,-3.179507691773138504e+03,-3.219650094785778037e+03,6.527522279121949396e+03,-1.726652916003074552e+03,9.446745872497558594e+00,-6.501809358596801758e-01,-1.070886254310607910e+00,7.200000000000000000e+01
8.147989091068746347e+03,-2.911058009449237943e+03,-1.187367798918975723e+03,-6.294897348180984409e+01,-3.063353556084315642e+03,-3.003549052602817028e+03,6.805702499190105300e+03,-1.520891012051135931e+03,9.446745872497558594e+00,-6.501809358596801758e-01,-1.070886254310607910e+00,7.300000000000000000e+01
7.986581388366616011e+03,-2.802273724533330096e+03,-1.048787510718140766e+03,4.213894637738439997e+01,-2.937696311940339456e+03,-2.875749786084419611e+03,4.622732340731277873e+03,-1.397049914506708774e+03,9.446745872497558594e+00,-6.501809358596801758e-01,-1.070886254310607910e+00,7.400000000000000000e+01
8.014815982544886538e+03,-2.906034199972548322e+03,-1.026335315026522039e+03,1.367714384733376392e+02,-2.897040599888355246e+03,-2.934053189907835986e+03,3.078336195116339695e+03,-1.455401046145372220e+03,9.446745872497558594e+00,-6.501809358596801758e-01,-1.070886254310607910e+00,7.500000000000000000e+01
8.109573212240027715e+03,-2.992521616355828883e+03,-1.075767816128815412e+03,1.543516491915943334e+02,-2.917026686313280607e+03,-3.019599240654436471e+03,8.039900634433385676e+03,-1.544502357237605793e+03,9.446745872497558594e+00,-6.501809358596801758e-01,-1.070886254310607910e+00,7.600000000000000000e+01
8.058304885713866497e+03,-2.856918073523924249e+03,-1.054951288320399271e+03,1.338532051171659987e+02,-2.889005270701592053e+03,-2.936420237484549943e+03,1.770019605765453889e+04,-1.471242878777406531e+03,9.561484336853027344e+00,-6.884268522262573242e-01,-1.147378087043762207e+00,7.700000000000000000e+01
7.851239793888874374e+03,-2.602395033833679918e+03,-9.211145383182183650e+02,1.661013956723299998e+02,-2.772290375805194799e+03,-2.721906795680788036e+03,2.355216464694314709e+04,-1.268105736611963948e+03,9.561484336853027344e+00,-6.884268522262573242e-01,-1.147378087043762207e+00,7.800000000000000000e+01
7.692019559184164791e+03,-2.496276066275932408e+03,-7.903292910318864415e+02,2.689774759624442595e+02,-2.650635317309114271e+03,-2.593689352728295944e+03,2.251141831638675649e+04,-1.147839846981443316e+03,9.561484336853027344e+00,-6.884268522262573242e-01,-1.147378087043762207e+00,7.900000000000000000e+01
7.716399964365519736e+03,-2.600547249599853785e+03,-7.767729075455727070e+02,3.630097734563446465e+02,-2.615309285027905389e+03,-2.647826104243997634e+03,1.976053076778384275e+04,-1.208986084966361659e+03,9.561484336853027344e+00,-6.884268522262573242e-01,-1.147378087043762207e+00,8.000000000000000000e+01
7.806560389643396775e+03,-2.688798192740327977e+03,-8.340298437131200444e+02,3.803047114960800172e+02,-2.638830147242402745e+03,-2.727543494830762938e+03,1.920541979104752681e+04,-1.300271706966539568e+03,9.561484336853027344e+00,-6.884268522262573242e-01,-1.147378087043762207e+00,8.100000000000000000e+01
7.753161019598866005e+03,-2.560934985907495957e+03,-8.186239549635497497e+02,3.573758619534714853e+02,-2.613838583240833032e+03,-2.642442039596690393e+03,1.918236668519652449e+04,-1.230545126959942081e+03,9.561484336853027344e+00,-6.884268522262573242e-01,-1.147378087043762207e+00,8.200000000000000000e+01
7.545805745355695763e+03,-2.317882897125517047e+03,-6.881912625692848451e+02,3.850569800755038159e+02,-2.501633243856515037e+03,-2.431866688758701457e+03,1.815820898588578348e+04,-1.032707877674116389e+03,9.561484336853027344e+00,-6.884268522262573242e-01,-1.147378087043762207e+00,8.300000000000000000e+01
7.385989833540139443e+03,-2.220007003393703599e+03,-5.594678710483212853e+02,4.836001376405592964e+02,-2.385055563978126429e+03,-2.309188707857262216e+03,1.730731822618525621e+04,-9.174334895358574613e+02,9.561484336853027344e+00,-6.884268522262573242e-01,-1.147378087043762207e+00,8.400000000000000000e+01
7.408232986040051401e+03,-2.327818604923350449e+03,-5.456920524359720730e+02,5.737418346111380743e+02,-2.353441513697109713e+03,-2.367052467930615421e+03,1.698378446433936188e+04,-9.817102209873507945e+02,9.561484336853027344e+00,-6.884268522262573242e-01,-1.147378087043762207e+00,8.500000000000000000e+01
7.495548479731442058e+03,-2.419680319154857443e+03,-6.002086353035329012e+02,5.847641654034496241e+02,-2.378711980583072545e+03,-2.451347586898873942e+03,1.619670616523215904e+04,-1.075422962861898668e+03,9.561484336853027344e+00,-6.884268522262573242e-01,-1.147378087043762207e+00,8.600000000000000000e+01
7.441609470192721346e+03,-2.297536557242833169e+03,-5.827085907240898450e+02,5.521839618168232846e+02,-2.353471977567970043e+03,-2.374593643275617978e+03,1.534649586951236779e+04,-1.008960157768161025e+03,9.561484336853027344e+00,-6.884268522262573242e-01,-1.147378087043762207e+00,8.700000000000000000e+01
7.234537866485298764e+03,-2.059604171047590626e+03,-4.535835388937366588e+02,5.694224376854626826e+02,-2.238680021976055741e+03,-2.172542585980427702e+03,1.534943469138248292e+04,-8.138240133283090927e+02,9.561484336853027344e+00,-6.884268522262573242e-01,-1.147378087043762207e+00,8.800000000000000000e+01
7.072857943129131854e+03,-1.965242039217492675e+03,-3.273194412541211022e+02,6.586202556425350849e+02,-2.117682112671737286e+03,-2.053237824656222529e+03,1.527408302947832271e+04,-6.979242995816525763e+02,9.561484336853027344e+00,-6.884268522262573242e-01,-1.147378087043762207e+00,8.900000000000000000e+01
7.092144585854883189e+03,-2.076530651803269848e+03,-3.141786109929225859e+02,7.399574188296546708e+02,-2.082234783778214933e+03,-2.110640458725124518e+03,1.409816360546537726e+04,-7.589718775701319373e+02,9.561484336853027344e+00,-6.884268522262573242e-01,-1.147378087043762207e+00,9.000000000000000000e+01
7.178413422184004958e+03,-2.171359013399734977e+03,-3.698797711521096971e+02,7.432487186564376316e+02,-2.107410677272717294e+03,-2.195899652268020873e+03,1.292685855608533166e+04,-8.512050570375506595e+02,9.561484336853027344e+00,-6.884268522262573242e-01,-1.147378087043762207e+00,9.100000000000000000e+01
7.125708489797032598e+03,-2.050417741813154862e+03,-3.581177702005297760e+02,7.061799470223313619e+02,-2.086959915822177663e+03,-2.122380450556781852e+03,1.285680939563818720e+04,-7.873932979712603810e+02,9.561484336853027344e+00,-6.884268522262573242e-01,-1.147378087043762207e+00,9.200000000000000000e+01
6.920903919526735990e+03,-1.813644781915505064e+03,-2.383811736741085952e+02,7.217967700038607290e+02,-1.979593956922517464e+03,-1.923068694900468017e+03,1.290332726008129794e+04,-5.967618594240525454e+02,9.561484336853027344e+00,-6.884268522262573242e-01,-1.147378087043762207e+00,9.300000000000000000e+01
6.761738598255813486e+03,-1.721641712001621727e+03,-1.216229594891142369e+02,8.091461854789904464e+02,-1.865120655157937563e+03,-1.805771390705797330e+03,1.209842977503376642e+04,-4.842800879984606581e+02,9.561484336853027344e+00,-6.884268522262573242e-01,-1.147378087043762207e+00,9.400000000000000000e+01
6.782005062801005806e+03,-1.833926820152218170e+03,-1.168347289504890796e+02,8.876169497556020360e+02,-1.833842772620392680e+03,-1.865385388266540758e+03,1.115702078476156385e+04,-5.476774384497680330e+02,9.561484336853027344e+00,-6.884268522262573242e-01,-1.147378087043762207e+00,9.500000000000000000e+01
6.865726181816203280e+03,-1.927172534004565932e+03,-1.791631300422241111e+02,8.894312093739363263e+02,-1.861786280392437220e+03,-1.951046078087704245e+03,1.062112777214273774e+04,-6.429104791611384826e+02,9.561484336853027344e+00,-6.884268522262573242e-01,-1.147378087043762207e+00,9.600000000000000000e+01
6.809005952454270300e+03,-1.805061412789933001e+03,-1.707398265621950486e+02,8.530385075850144858e+02,-1.843749608402200010e+03,-1.875012770673994055e+03,1.000271321557635929e+04,-5.841453398824201031e+02,9.561484336853027344e+00,-6.884268522262573242e-01,-1.147378087043762207e+00,9.700000000000000000e+01
6.603548589865529721e+03,-1.568075351417080128e+03,-5.176363131784637517e+01,8.690876942135737409e+02,-1.739028914022424942e+03,-1.674474345903256108e+03,9.497762706891284324e+03,-4.013232651150401580e+02,9.561484336853027344e+00,-6.884268522262573242e-01,-1.147378087043762207e+00,9.800000000000000000e+01
6.447628170907179083e+03,-1.472678769909670336e+03,6.351987985527921410e+01,9.553458408257974952e+02,-1.628639915260644557e+03,-1.561073094942708394e+03,9.599706937691795247e+03,-2.984133092883203062e+02,9.561484336853027344e+00,-6.884268522262573242e-01,-1.147378087043762207e+00,9.900000000000000000e+01
6.470551727595689954e+03,-1.578036905541230681e+03,6.494709433939988230e+01,1.033169958813966332e+03,-1.603428924970707158e+03,-1.626950450282725342e+03,9.070176882129080695e+03,-3.699997711477903977e+02,9.561484336853027344e+00,-6.884268522262573242e-01,-1.147378087043762207e+00,1.000000000000000000e+02
6.554201505942528456e+03,-1.667013826135291310e+03,-1.260965842114273983e+00,1.036386114353211269e+03,-1.637348348024273946e+03,-1.716578014142030042e+03,6.967437891802239392e+03,-4.697076631252780317e+02,9.561484336853027344e+00,-6.884268522262573242e-01,-1.147378087043762207e+00,1.010000000000000000e+02
6.497429245770988928e+03,-1.546872534312273274e+03,2.785711126451133168e+00,1.001369010182923375e+03,-1.622771708038895667e+03,-1.642007968058755978e+03,6.110938098660921241e+03,-4.125581618093642646e+02,9.561484336853027344e+00,-6.884268522262573242e-01,-1.147378087043762207e+00,1.020000000000000000e+02
6.293542093476949958e+03,-1.314882318994493289e+03,1.164472992784149028e+02,1.015159246026687470e+03,-1.519494965478870654e+03,-1.441699836141801370e+03,9.855130305477934598e+03,-2.300698960046674983e+02,9.561484336853027344e+00,-6.884268522262573242e-01,-1.147378087043762207e+00,1.030000000000000000e+02
6.138362502089072223e+03,-1.224398572841605528e+03,2.279415187212271121e+02,1.095006756149934517e+03,-1.409830803976688003e+03,-1.326019426082566952e+03,1.592875174408925523e+04,-1.259751932985000167e+02,9.446745872497558594e+00,-6.884268522262573242e-01,-1.070886254310607910e+00,1.040000000000000000e+02
6.159623028219105436e+03,-1.335132156414380006e+03,2.296547937388841092e+02,1.165573655849517309e+03,-1.383426359304678044e+03,-1.387335437235872178e+03,1.871442328206890670e+04,-1.949596914297262629e+02,9.446745872497558594e+00,-6.884268522262573242e-01,-1.070886254310607910e+00,1.050000000000000000e+02
6.241284845837883950e+03,-1.430038220952345910e+03,1.657999722280283095e+02,1.163556567673086647e+03,-1.413688063626012081e+03,-1.475101487951448235e+03,1.728908568958475371e+04,-2.930554697240913811e+02,9.446745872497558594e+00,-6.884268522262573242e-01,-1.070886254310607910e+00,1.060000000000000000e+02
6.183701470478271403e+03,-1.315193993235440757e+03,1.702342050293409557e+02,1.124596697021804175e+03,-1.397003434892652422e+03,-1.404995337875590394e+03,1.576512019079693346e+04,-2.372002059377300611e+02,9.446745872497558594e+00,-6.884268522262573242e-01,-1.070886254310607910e+00,1.070000000000000000e+02
5.978420177375767707e+03,-1.088452204684139815e+03,2.816879737988756460e+02,1.133720746373115617e+03,-1.296911091242784551e+03,-1.211991296360751221e+03,1.615275829613626229e+04,-5.771507744374139293e+01,9.446745872497558594e+00,-6.884268522262573242e-01,-1.070886254310607910e+00,1.080000000000000000e+02
5.819740385310895363e+03,-1.003902681022844263e+03,3.908544105542869147e+02,1.208066564617606673e+03,-1.192634587773005933e+03,-1.100949674697713817e+03,1.626166122543979691e+04,4.379607383060192660e+01,9.446745872497558594e+00,-6.884268522262573242e-01,-1.070886254310607910e+00,1.090000000000000000e+02
5.836746523991287177e+03,-1.118994221192646364e+03,3.918697550473470983e+02,1.272852113554114112e+03,-1.168018551413335445e+03,-1.164343006965762925e+03,1.483660626595184840e+04,-2.703014683367928228e+01,9.446745872497558594e+00,-6.884268522262573242e-01,-1.070886254310607910e+00,1.100000000000000000e+02
5.915158542229798513e+03,-1.214517075433035643e+03,3.284834511813323843e+02,1.264232770169292962e+03,-1.196430351888841869e+03,-1.255392349284104512e+03,1.358369429627148747e+04,-1.267668268335814901e+02,9.446745872497558594e+00,-6.884268522262573242e-01,-1.070886254310607910e+00,1.110000000000000000e+02
5.855358177227741180e+03,-1.098468254580559005e+03,3.329657467362831085e+02,1.218328021947258094e+03,-1.178372351766059182e+03,-1.190555647045883234e+03,1.357145965005478865e+04,-7.214187825610360960e+01,9.446745872497558594e+00,-6.884268522262573242e-01,-1.070886254310607910e+00,1.120000000000000000e+02
5.648549260870291619e+03,-8.717664763357229276e+02,4.431726424707221668e+02,1.222611237038481704e+03,-1.078197460198620320e+03,-1.002551821866221871e+03,1.363531187109865641e+04,1.067088331770864897e+02,9.446745872497558594e+00,-6.884268522262573242e-01,-1.070886254310607910e+00,1.130000000000000000e+02
5.489168412022784651e+03,-7.882742657727917504e+02,5.507777708464009265e+02,1.294846063599180525e+03,-9.731499383813079476e+02,-8.951612262927546908e+02,1.286892018582666424e+04,2.076571326798502923e+02,9.446745872497558594e+00,-6.884268522262573242e-01,-1.070886254310607910e+00,1.140000000000000000e+02
5.505882738775530015e+03,-9.034913982900538940e+02,5.511132586103585709e+02,1.357618708017383142e+03,-9.479259370296217639e+02,-9.612672812685177632e+02,1.183612207535545167e+04,1.359595639159088023e+02,9.446745872497558594e+00,-6.884268522262573242e-01,-1.070886254310607910e+00,1.150000000000000000e+02
5.583930695120167911e+03,-9.983396630434863255e+02,4.867336897329823842e+02,1.345879566218955006e+03,-9.784944142229796853e+02,-1.054306293714845197e+03,1.112281815631187601e+04,3.478330565739179292e+01,9.446745872497558594e+00,-6.884268522262573242e-01,-1.070886254310607910e+00,1.160000000000000000e+02
5.524527905002502848e+03,-8.827327603633011677e+02,4.876111425577091723e+02,1.298079292423173683e+03,-9.649024771890594820e+02,-9.915727210372115223e+02,1.068431189163928138e+04,8.639432384314704905e+01,9.446745872497558594e+00,-6.884268522262573242e-01,-1.070886254310607910e+00,1.170000000000000000e+02
5.319554087667319436e+03,-6.584414107180712108e+02,5.918717447129547509e+02,1.302814933551099784e+03,-8.692461520623915021e+02,-8.067388159186320991e+02,1.043185586987878560e+04,2.602394728601148017e+02,9.446745872497558594e+00,-6.884268522262573242e-01,-1.070886254310607910e+00,1.180000000000000000e+02
5.161871950434669088e+03,-5.779928877687668773e+02,6.937120179653466039e+02,1.375357423609028046e+03,-7.685611948679252237e+02,-7.017195555828675424e+02,1.010621485870477773e+04,3.562341567779621982e+02,9.446745872497558594e+00,-6.884268522262573242e-01,-1.070886254310607910e+00,1.190000000000000000e+02
5.178343452724057897e+03,-6.946396407990466741e+02,6.896160415949052549e+02,1.436662775526783662e+03,-7.481475253128828626e+02,-7.665440216230235819e+02,9.216050897769664516e+03,2.819235886563310487e+02,9.446745872497558594e+00,-6.884268522262573242e-01,-1.070886254310607910e+00,1.200000000000000000e+02
5.255430323554059214e+03,-7.884020442742821615e+02,6.212520493730207818e+02,1.423347628797222569e+03,-7.829894647600503959e+02,-8.564546039751585340e+02,8.048949932818904927e+03,1.792602313024099203e+02,9.446745872497558594e+00,-6.884268522262573242e-01,-1.070886254310607910e+00,1.210000000000000000e+02
5.197108210307867012e+03,-6.709668920006465669e+02,6.179928644817982786e+02,1.374780487016698316e+03,-7.724596923564113240e+02,-7.937000304274652080e+02,7.618128389079363842e+03,2.273918261639046250e+02,9.446745872497558594e+00,-6.884268522262573242e-01,-1.070886254310607910e+00,1.220000000000000000e+02
4.995481523207298778e+03,-4.470323901669464703e+02,7.182430524558485558e+02,1.377592164521014638e+03,-6.798657454014801260e+02,-6.127092570010254349e+02,7.827744291017323121e+03,3.956852239248373735e+02,9.446745872497558594e+00,-6.884268522262573242e-01,-1.070886254310607910e+00,1.230000000000000000e+02
4.841052468481089818e+03,-3.701900084301714742e+02,8.161713748740958181e+02,1.446382096943583747e+03,-5.831219454195393155e+02,-5.117786440834188397e+02,7.331592106203286676e+03,4.870361658788642671e+02,9.446745872497558594e+00,-6.884268522262573242e-01,-1.070886254310607910e+00,1.240000000000000000e+02
4.859269898841374015e+03,-4.927779205860983893e+02,8.079300808287298423e+02,1.505375434541878349e+03,-5.670556100261983374e+02,-5.793068640178471469e+02,5.969018871251948440e+03,4.103978331359230651e+02,9.446745872497558594e+00,-6.884268522262573242e-01,-1.070886254310607910e+00,1.250000000000000000e+02
4.937357497942985901e+03,-5.944562143347798155e+02,7.354484330495370159e+02,1.494155296136872494e+03,-6.067760378096727436e+02,-6.718058607556549759e+02,5.167010464728406077e+03,3.060760318565635316e+02,9.446745872497558594e+00,-6.884268522262573242e-01,-1.070886254310607910e+00,1.260000000000000000e+02
4.880066273299224122e+03,-4.866354659622716099e+02,7.288289171182786959e+02,1.450312358220287933e+03,-6.021951296653296595e+02,-6.118601254259460802e+02,5.207130770887521066e+03,3.515015961503459039e+02,9.446745872497558594e+00,-6.884268522262573242e-01,-1.070886254310607910e+00,1.270000000000000000e+02
4.679035098922784528e+03,-2.706963443416918835e+02,8.267684805924345710e+02,1.456387019321824482e+03,-5.151704764539276766e+02,-4.335055950634653072e+02,4.789686982037561393e+03,5.163066823456147176e+02,9.446745872497558594e+00,-6.884268522262573242e-01,-1.070886254310607910e+00,1.280000000000000000e+02
4.524416247958778513e+03,-1.960277323037587394e+02,9.229159446022031261e+02,1.525672269641816456e+03,-4.210763882133960578e+02,-3.357689008374936748e+02,3.859119101482916449e+03,6.047856829609081615e+02,9.446745872497558594e+00,-6.884268522262573242e-01,-1.070886254310607910e+00,1.290000000000000000e+02
4.542624255111330058e+03,-3.167081075670639621e+02,9.129028408296144335e+02,1.583448130615130140e+03,-4.046714056896817056e+02,-4.072293577381292380e+02,3.523869871647468244e+03,5.267179397658537710e+02,9.446745872497558594e+00,-6.884268522262573242e-01,-1.070886254310607910e+00,1.300000000000000000e+02
4.622452937229338204e+03,-4.194234720181411831e+02,8.391997677452318385e+02,1.568594561841964605e+03,-4.436821332964091198e+02,-5.034123561710298418e+02,3.076888587697128969e+03,4.215039885973874334e+02,9.446745872497558594e+00,-6.884268522262573242e-01,-1.070886254310607910e+00,1.310000000000000000e+02
4.569572548915096377e+03,-3.181906267937038137e+02,8.329399579245409768e+02,1.516834657643341416e+03,-4.399302207905680007e+02,-4.471596087598054510e+02,1.336738319856089220e+03,4.647273376870098218e+02,9.446745872497558594e+00,-6.884268522262573242e-01,-1.070886254310607910e+00,1.320000000000000000e+02
4.375406139156626523e+03,-1.091493347974928838e+02,9.324847049392283225e+02,1.512450904830619038e+03,-3.548049199539027541e+02,-2.733194078904741673e+02,7.425722680689577828e+02,6.259674223827478272e+02,9.446745872497558594e+00,-6.884268522262573242e-01,-1.070886254310607910e+00,1.330000000000000000e+02
4.228786023228446538e+03,-3.722100075372009087e+01,1.029674483759465147e+03,1.573758318553313075e+03,-2.625970375865540518e+02,-1.794222660071202426e+02,4.765204515376979543e+03,7.117823926389555709e+02,9.446745872497558594e+00,-6.884268522262573242e-01,-1.070886254310607910e+00,1.340000000000000000e+02
4.254186099500311684e+03,-1.587290381329426054e+02,1.018940921983346925e+03,1.628290904349367338e+03,-2.479419189148586611e+02,-2.521774737111024933e+02,1.141237486038806674e+04,6.331863308528409107e+02,9.484992027282714844e+00,-6.501809358596801758e-01,-1.070886254310607910e+00,1.350000000000000000e+02
4.338895182653221127e+03,-2.639625817339115201e+02,9.430495645662977040e+02,1.612563545065806466e+03,-2.885280365064606940e+02,-3.482934894653926676e+02,1.495939471121806855e+04,5.281390323830755733e+02,9.484992027282714844e+00,-6.501809358596801758e-01,-1.070886254310607910e+00,1.360000000000000000e+02
4.288274437980751827e+03,-1.666863674082153466e+02,9.336825874232627029e+02,1.559900022141264344e+03,-2.851779139785635380e+02,-2.927251964637046058e+02,1.408030845678313563e+04,5.708747203479706513e+02,9.484992027282714844e+00,-6.501809358596801758e-01,-1.070886254310607910e+00,1.370000000000000000e+02
4.094280123519336485e+03,3.803322627910506526e+01,1.029363808981542206e+03,1.554301027897248787e+03,-1.986906970601498870e+02,-1.202428125432584238e+02,1.261089169654490979e+04,7.311769681917839989e+02,9.484992027282714844e+00,-6.501809358596801758e-01,-1.070886254310607910e+00,1.380000000000000000e+02
3.946530328352535435e+03,1.043816702839799291e+02,1.122389715607248036e+03,1.613449081108139580e+03,-1.048913992451332433e+02,-2.784369163250858037e+01,1.261050546032054990e+04,8.152021894065546803e+02,9.484992027282714844e+00,-6.501809358596801758e-01,-1.070886254310607910e+00,1.390000000000000000e+02
3.970582284773288848e+03,-2.382911746277068232e+01,1.107869986127475386e+03,1.663921812707982099e+03,-9.072342770494697106e+01,-1.027766531185529857e+02,1.234992470487632454e+04,7.326800200434972794e+02,9.484992027282714844e+00,-6.501809358596801758e-01,-1.070886254310607910e+00,1.400000000000000000e+02
4.055095916471536839e+03,-1.344644464935695396e+02,1.028585215097258697e+03,1.643753301802089481e+03,-1.343316908012302520e+02,-2.013568734097279957e+02,1.098854632067692364e+04,6.220753835104460450e+02,9.484992027282714844e+00,-6.501809358596801758e-01,-1.070886254310607910e+00,1.410000000000000000e+02
4.006415026413917076e+03,-4.046216308310772547e+01,1.015492352635137649e+03,1.588910069874382316e+03,-1.355675396350618485e+02,-1.474932254485538579e+02,1.011221552856776179e+04,6.598734686563029754e+02,9.484992027282714844e+00,-6.501809358596801758e-01,-1.070886254310607910e+00,1.420000000000000000e+02
3.816432689201508765e+03,1.614365572643232554e+02,1.106495500951042231e+03,1.583032219889011685e+03,-5.499165475411132320e+01,2.273416526701566909e+01,1.038316530806352603e+04,8.167795919765712824e+02,9.484992027282714844e+00,-6.501809358596801758e-01,-1.070886254310607910e+00,1.430000000000000000e+02
3.673603764469577072e+03,2.258233881034666410e+02,1.194236127807201228e+03,1.641052286930185801e+03,3.163495952303355807e+01,1.100154340627004785e+02,1.050631077801587526e+04,8.979359289484264082e+02,9.484992027282714844e+00,-6.501809358596801758e-01,-1.070886254310607910e+00,1.440000000000000000e+02
3.701862958045729101e+03,9.954774311612072779e+01,1.175333554569099761e+03,1.688700669208423278e+03,3.918066879675075143e+01,2.812293525006816708e+01,9.774340897435664374e+03,8.123844848698445276e+02,9.484992027282714844e+00,-6.501809358596801758e-01,-1.070886254310607910e+00,1.450000000000000000e+02
3.789093526943093821e+03,-5.941067232869954751e+00,1.094016366249597013e+03,1.665732071270509550e+03,-8.302158024820073479e+00,-7.596835409433106179e+01,9.005177950200491978e+03,6.990396169837313209e+02,9.484992027282714844e+00,-6.501809358596801758e-01,-1.070886254310607910e+00,1.460000000000000000e+02
3.742291830578171357e+03,9.083666197207458026e+01,1.080725892440689677e+03,1.609291370061555426e+03,-1.123864868342434420e+01,-2.547906842728025367e+01,8.828044108484677054e+03,7.346447273525927812e+02,9.484992027282714844e+00,-6.501809358596801758e-01,-1.070886254310607910e+00,1.470000000000000000e+02
3.553905807796048975e+03,2.913099169762199381e+02,1.171207768194391974e+03,1.602461742400344519e+03,6.692669229475450265e+01,1.417562774221528343e+02,8.779848396307495932e+03,8.893067599257610709e+02,9.484992027282714844e+00,-6.501809358596801758e-01,-1.070886254310607910e+00,1.480000000000000000e+02
3.411435110335030913e+03,3.549959286522430375e+02,1.257155937312988499e+03,1.659670037035961286e+03,1.490477812057758911e+02,2.266115203742729136e+02,8.344961788768549013e+03,9.678909023160249490e+02,9.484992027282714844e+00,-6.501809358596801758e-01,-1.070886254310607910e+00,1.490000000000000000e+02
3.438011836305242468e+03,2.301021766670792204e+02,1.236384487589200035e+03,1.707218404938350432e+03,1.516642657715713085e+02,1.450887922780850658e+02,7.832700484157798201e+03,8.806964290879686814e+02,9.484992027282714844e+00,-6.501809358596801758e-01,-1.070886254310607910e+00,1.500000000000000000e+02
3.522989341226635588e+03,1.210345352278882274e+02,1.153469417664887260e+03,1.685303188523627796e+03,1.008268570129816908e+02,4.408203311051238416e+01,7.644674332601687638e+03,7.679850248043858301e+02,9.484992027282714844e+00,-6.501809358596801758e-01,-1.070886254310607910e+00,1.510000000000000000e+02
3.475562809789609673e+03,2.060319368354362268e+02,1.136701651396029774e+03,1.630297753228440342e+03,9.571036005401924740e+01,9.708372463168325339e+01,7.321782478100623848e+03,8.050003522252791299e+02,9.484992027282714844e+00,-6.501809358596801758e-01,-1.070886254310607910e+00,1.520000000000000000e+02
3.288446740947360013e+03,3.947651075304802362e+02,1.220864154780548233e+03,1.624196521676913108e+03,1.714108338850644486e+02,2.639333918901879770e+02,6.447432946569397245e+03,9.586081574719983109e+02,9.484992027282714844e+00,-6.501809358596801758e-01,-1.070886254310607910e+00,1.530000000000000000e+02
3.148261472526381112e+03,4.544242215823719562e+02,1.301372032055027375e+03,1.681437111560972880e+03,2.511253458756050350e+02,3.463362329702576972e+02,6.149969117611090041e+03,1.033727077731315148e+03,9.484992027282714844e+00,-6.501809358596801758e-01,-1.070886254310607910e+00,1.540000000000000000e+02
3.178243882301481790e+03,3.306036402433214789e+02,1.280739272502118183e+03,1.728888495226056875e+03,2.527029831191346148e+02,2.614983916403291460e+02,7.891756228340038433e+03,9.441120970906313232e+02,9.484992027282714844e+00,-6.501809358596801758e-01,-1.070886254310607910e+00,1.550000000000000000e+02
3.268394322699277836e+03,2.235652862510214618e+02,1.202851700377387715e+03,1.706250582227689847e+03,2.016299792691334005e+02,1.557122352671249246e+02,1.079827689955244387e+04,8.307564780189068188e+02,9.408499717712402344e+00,-6.884268522262573242e-01,-1.147378087043762207e+00,1.560000000000000000e+02
3.227715660320562165e+03,3.119769893093921382e+02,1.190981585788826123e+03,1.648555870721575957e+03,1.958839391564968082e+02,2.021696400100606752e+02,1.236914377258993773e+04,8.659493395797071571e+02,9.408499717712402344e+00,-6.884268522262573242e-01,-1.147378087043762207e+00,1.570000000000000000e+02
3.047984025100644430e+03,5.021284970103665728e+02,1.277496038712733935e+03,1.637373489625210823e+03,2.719797082834409139e+02,3.627541501992991471e+02,1.196594485078912476e+04,1.016417383254055494e+03,9.408499717712402344e+00,-6.884268522262573242e-01,-1.147378087043762207e+00,1.580000000000000000e+02
2.914341366391448901e+03,5.537086754480947093e+02,1.359328465085388416e+03,1.688117274126394477e+03,3.549846891216011500e+02,4.415653874687031930e+02,1.123297885120142018e+04,1.090548091862333422e+03,9.408499717712402344e+00,-6.884268522262573242e-01,-1.147378087043762207e+00,1.590000000000000000e+02
2.948227761618793011e+03,4.142266589503283285e+02,1.339108641559924763e+03,1.729106793569195361e+03,3.606412524194361140e+02,3.556431882784354457e+02,1.108749376314733308e+04,1.002026384529141069e+03,9.408499717712402344e+00,-6.884268522262573242e-01,-1.147378087043762207e+00,1.600000000000000000e+02
3.039298723852663898e+03,2.953292372721953143e+02,1.258302726061897374e+03,1.701503170196850078e+03,3.107326626351446066e+02,2.490033938795795621e+02,1.081701174277407154e+04,8.875950668913756090e+02,9.408499717712402344e+00,-6.884268522262573242e-01,-1.147378087043762207e+00,1.610000000000000000e+02
2.998558688284259915e+03,3.802879852706851125e+02,1.240126035271217916e+03,1.641573664009581989e+03,3.032142902407395013e+02,2.933503844337456030e+02,1.014175165270566140e+04,9.187824006929904499e+02,9.408499717712402344e+00,-6.884268522262573242e-01,-1.147378087043762207e+00,1.620000000000000000e+02
2.819596538888890791e+03,5.704722303954322342e+02,1.319980771704001199e+03,1.630942632541278726e+03,3.765732485414600887e+02,4.515193944244570048e+02,9.775078353320954193e+03,1.066104968684689084e+03,9.408499717712402344e+00,-6.884268522262573242e-01,-1.147378087043762207e+00,1.630000000000000000e+02
2.687115146140460638e+03,6.240152323246406922e+02,1.396226952393539250e+03,1.683475132965479133e+03,4.557025065011337119e+02,5.295530962103166530e+02,9.844079520767574650e+03,1.139368639545783481e+03,9.408499717712402344e+00,-6.884268522262573242e-01,-1.147378087043762207e+00,1.640000000000000000e+02
2.721771356708399253e+03,4.912014278037549957e+02,1.370890788925999914e+03,1.725401754574235383e+03,4.562396974933644742e+02,4.444278108011385484e+02,9.610319982143473680e+03,1.050025602509184864e+03,9.408499717712402344e+00,-6.884268522262573242e-01,-1.147378087043762207e+00,1.650000000000000000e+02
2.814080192417886792e+03,3.805931431193325807e+02,1.286652867924842212e+03,1.696660756678268626e+03,4.023074521907167309e+02,3.375622441847867776e+02,8.884651902417368547e+03,9.336305723206160110e+02,9.408499717712402344e+00,-6.884268522262573242e-01,-1.147378087043762207e+00,1.660000000000000000e+02
2.776122449437380055e+03,4.691143732837417701e+02,1.268502558674129432e+03,1.633881819014961366e+03,3.923020950786967660e+02,3.787867259462932452e+02,8.307634566151726176e+03,9.617016976141585474e+02,9.408499717712402344e+00,-6.884268522262573242e-01,-1.147378087043762207e+00,1.670000000000000000e+02
2.601137810915042792e+03,6.590517434043540561e+02,1.349833971803858731e+03,1.620438044207741768e+03,4.613990539139597331e+02,5.322784406917726301e+02,8.237492783684469032e+03,1.103822578149087349e+03,9.408499717712402344e+00,-6.884268522262573242e-01,-1.147378087043762207e+00,1.680000000000000000e+02
2.472711192394552199e+03,7.135908675248974760e+02,1.425474268124270566e+03,1.671861648087450703e+03,5.337107232929222391e+02,6.064539083305244276e+02,8.234378422717501962e+03,1.170671181693054677e+03,9.408499717712402344e+00,-6.884268522262573242e-01,-1.147378087043762207e+00,1.690000000000000000e+02
2.510505893336344343e+03,5.822064723721673545e+02,1.397700691405829275e+03,1.714395806660068047e+03,5.290790581207345440e+02,5.185805522060636576e+02,7.789302675660643217e+03,1.077544308190477295e+03,9.408499717712402344e+00,-6.884268522262573242e-01,-1.147378087043762207e+00,1.700000000000000000e+02
2.604431798212092872e+03,4.691427076384829888e+02,1.311435868848504469e+03,1.686697770244520143e+03,4.738530810043514521e+02,4.091435347417482262e+02,7.093398138404601923e+03,9.614263737630722062e+02,9.408499717712402344e+00,-6.884268522262573242e-01,-1.147378087043762207e+00,1.710000000000000000e+02
2.567040221890605608e+03,5.515878751050668143e+02,1.291162230723695757e+03,1.624351639738467384e+03,4.634938679028123261e+02,4.483377991677384671e+02,6.720766423789807959e+03,9.909126330620879344e+02,9.408499717712402344e+00,-6.884268522262573242e-01,-1.147378087043762207e+00,1.720000000000000000e+02
2.392828857681140107e+03,7.348722895514320044e+02,1.368988365900693680e+03,1.610300229637247867e+03,5.313061442897562756e+02,6.017158213838174561e+02,6.679704420838588703e+03,1.134088899600543300e+03,9.408499717712402344e+00,-6.884268522262573242e-01,-1.147378087043762207e+00,1.730000000000000000e+02
2.265569889401133878e+03,7.822054771430598521e+02,1.441565660085515447e+03,1.660118915275880681e+03,6.036076739252962398e+02,6.782742046542416574e+02,6.433142978804809900e+03,1.203512253333874014e+03,9.408499717712402344e+00,-6.884268522262573242e-01,-1.147378087043762207e+00,1.740000000000000000e+02
2.303925935578156896e+03,6.423309043742979156e+02,1.413061062095021953e+03,1.701136516344368829e+03,6.009812419931886325e+02,5.945941948793170013e+02,5.930127726754093601e+03,1.114286660278437466e+03,9.408499717712402344e+00,-6.884268522262573242e-01,-1.147378087043762207e+00,1.750000000000000000e+02
2.397877868374362151e+03,5.227264200449344571e+02,1.326134516211132905e+03,1.673652562159962145e+03,5.464023708091187927e+02,4.894733731063488449e+02,5.611966374259543954e+03,9.999980827466993105e+02,9.408499717712402344e+00,-6.884268522262573242e-01,-1.147378087043762207e+00,1.760000000000000000e+02
2.361480155941494559e+03,6.047818747812821130e+02,1.302341050344503856e+03,1.613523747659689434e+03,5.330715191417905316e+02,5.309318467126327050e+02,5.313928732667300210e+03,1.028131305750070169e+03,9.408499717712402344e+00,-6.884268522262573242e-01,-1.147378087043762207e+00,1.770000000000000000e+02
2.189867434962736297e+03,7.932402793788560302e+02,1.375297992609607718e+03,1.602513260575363347e+03,5.963112848795990431e+02,6.835514368896765518e+02,4.618002399090190011e+03,1.168918874811456590e+03,9.408499717712402344e+00,-6.884268522262573242e-01,-1.147378087043762207e+00,1.780000000000000000e+02
2.065930673364407994e+03,8.473809727425059464e+02,1.444982959993383702e+03,1.655592899745579416e+03,6.648637063652540746e+02,7.575042702501345957e+02,4.336987126955133135e+03,1.235666321984646402e+03,9.408499717712402344e+00,-6.884268522262573242e-01,-1.147378087043762207e+00,1.790000000000000000e+02
2.107737229830798242e+03,7.137972233756231617e+02,1.415705475062011828e+03,1.700130089936224067e+03,6.592226117592299488e+02,6.707808663444357080e+02,5.725597513868060560e+03,1.142499953102664222e+03,9.408499717712402344e+00,-6.884268522262573242e-01,-1.147378087043762207e+00,1.800000000000000000e+02
2.205792886049250228e+03,5.987012785292708941e+02,1.328834072783480678e+03,1.675018062985918732e+03,6.023036398438071046e+02,5.618927831610735666e+02,8.099692892396313255e+03,1.023837826017892894e+03,9.484992027282714844e+00,-6.119350194931030273e-01,-1.109132170677185059e+00,1.810000000000000000e+02
2.174822916509741844e+03,6.795718441288290705e+02,1.306909925900934468e+03,1.613505491780545526e+03,5.886603391969611039e+02,5.980238480336302018e+02,9.353267806533314797e+03,1.048833600789713273e+03,9.484992027282714844e+00,-6.119350194931030273e-01,-1.109132170677185059e+00,1.820000000000000000e+02
2.009802989487391642e+03,8.587003705195675138e+02,1.384143762362634334e+03,1.596488950593879963e+03,6.532414812892993723e+02,7.440575958065014675e+02,8.980510151981381568e+03,1.187084577931074818e+03,9.484992027282714844e+00,-6.119350194931030273e-01,-1.109132170677185059e+00,1.830000000000000000e+02
1.892117834564254736e+03,9.005714446504912303e+02,1.457166081598364599e+03,1.640883471862701299e+03,7.220436265235121027e+02,8.112140080502954333e+02,8.384932852371885019e+03,1.250937295497681589e+03,9.484992027282714844e+00,-6.119350194931030273e-01,-1.109132170677185059e+00,1.840000000000000000e+02
1.937523621351660040e+03,7.595066602618167053e+02,1.427066989098706017e+03,1.676873791041007280e+03,7.151002402635831459e+02,7.187294347473166454e+02,8.259355408215282296e+03,1.156189441350618381e+03,9.484992027282714844e+00,-6.119350194931030273e-01,-1.109132170677185059e+00,1.850000000000000000e+02
2.035777198789146496e+03,6.421198190583540963e+02,1.337281449591538603e+03,1.645347092473256453e+03,6.583687862471419976e+02,6.065735130495413614e+02,7.930020854478514593e+03,1.038673213225888503e+03,9.484992027282714844e+00,-6.119350194931030273e-01,-1.109132170677185059e+00,1.860000000000000000e+02
2.003896482147091774e+03,7.214571313441965685e+02,1.314218249711541830e+03,1.580437980198247715e+03,6.473114591314742938e+02,6.420377359380599955e+02,7.264051208704560850e+03,1.065412423906162530e+03,9.484992027282714844e+00,-6.119350194931030273e-01,-1.109132170677185059e+00,1.870000000000000000e+02
1.839725504675949196e+03,8.995100208223934715e+02,1.391973707434075550e+03,1.562512686670538642e+03,7.134794274018186115e+02,7.875333759780814944e+02,6.986305132859717560e+03,1.203414648171823046e+03,9.484992027282714844e+00,-6.119350194931030273e-01,-1.109132170677185059e+00,1.880000000000000000e+02
1.725046115095008645e+03,9.428299083578485806e+02,1.465263190286793360e+03,1.606790601471789159e+03,7.808267839518086930e+02,8.521095843004591188e+02,7.086786626447840717e+03,1.265601935826936369e+03,9.484992027282714844e+00,-6.119350194931030273e-01,-1.109132170677185059e+00,1.890000000000000000e+02
1.774588059910726770e+03,8.036610386356824165e+02,1.435877610853320675e+03,1.642508213809163863e+03,7.712670587132206492e+02,7.562426185137205721e+02,6.791641945650985690e+03,1.168959131260163758e+03,9.484992027282714844e+00,-6.119350194931030273e-01,-1.109132170677185059e+00,1.900000000000000000e+02
1.878112578317020962e+03,6.862295463337823094e+02,1.348005763685761394e+03,1.611538640543487418e+03,7.115756157265091133e+02,6.418909442199669684e+02,6.069979701835975902e+03,1.048095897120231257e+03,9.484992027282714844e+00,-6.119350194931030273e-01,-1.109132170677185059e+00,1.910000000000000000e+02
1.852677849075701488e+03,7.663260468288735865e+02,1.325523817636992135e+03,1.548926817118081999e+03,6.954455037750008159e+02,6.754000061908855059e+02,5.622884890671760331e+03,1.069184437635200084e+03,9.484992027282714844e+00,-6.119350194931030273e-01,-1.109132170677185059e+00,1.920000000000000000e+02
1.694189949238333611e+03,9.478336767093614981e+02,1.400488832071308025e+03,1.533656696141356406e+03,7.554162320344012187e+02,8.181610622313237400e+02,5.576483994693976456e+03,1.201941407417721166e+03,9.484992027282714844e+00,-6.119350194931030273e-01,-1.109132170677185059e+00,1.930000000000000000e+02
1.582211348223941059e+03,9.929141125450209984e+02,1.469734166589127199e+03,1.578963120157222420e+03,8.197726578012948266e+02,8.819757996152470696e+02,5.441059372306021032e+03,1.262870517860935252e+03,9.484992027282714844e+00,-6.119350194931030273e-01,-1.109132170677185059e+00,1.940000000000000000e+02
1.631995871197243105e+03,8.501909556217551653e+02,1.437581894765544348e+03,1.614482024984455620e+03,8.114505540472205212e+02,7.896827224277258210e+02,5.048337728746055291e+03,1.169137615363585155e+03,9.484992027282714844e+00,-6.119350194931030273e-01,-1.109132170677185059e+00,1.950000000000000000e+02
1.735712595743913880e+03,7.265823858659045982e+02,1.347418694883715943e+03,1.583846854700454969e+03,7.532983062629766664e+02,6.798732096783105590e+02,4.580076089806630989e+03,1.052552574275020106e+03,9.484992027282714844e+00,-6.119350194931030273e-01,-1.109132170677185059e+00,1.960000000000000000e+02
1.711409189591390714e+03,8.007703664482337444e+02,1.321791564743279196e+03,1.522028781516036361e+03,7.362109219025760467e+02,7.141024519444413272e+02,4.126913748795464926e+03,1.076692783666822834e+03,9.484992027282714844e+00,-6.119350194931030273e-01,-1.109132170677185059e+00,1.970000000000000000e+02
1.554022572014881007e+03,9.761454146736914481e+02,1.393695302178668499e+03,1.506430045403638815e+03,7.935826684834923981e+02,8.545502187845768276e+02,3.841151454407762685e+03,1.210232072320501629e+03,9.484992027282714844e+00,-6.119350194931030273e-01,-1.109132170677185059e+00,1.980000000000000000e+02
1.442458783042059622e+03,1.016754987113957668e+03,1.460900530463845371e+03,1.550017995910882746e+03,8.543712039860732830e+02,9.167394642028682483e+02,3.838965730882244316e+03,1.269808527460493679e+03,9.484992027282714844e+00,-6.119350194931030273e-01,-1.109132170677185059e+00,1.990000000000000000e+02
1.492608469685655109e+03,8.756148577758949614e+02,1.426815583420524945e+03,1.583625104887615180e+03,8.407593098028996792e+02,8.236947201460702672e+02,3.683153556816277160e+03,1.173525074267084619e+03,9.484992027282714844e+00,-6.119350194931030273e-01,-1.109132170677185059e+00,2.000000000000000000e+02
1.597308187176446154e+03,7.582038473651764434e+02,1.333884501238295343e+03,1.551706402458894445e+03,7.765091406529163578e+02,7.122178356225940661e+02,2.963468476530311818e+03,1.054194772733244463e+03,9.484992027282714844e+00,-6.119350194931030273e-01,-1.109132170677185059e+00,2.010000000000000000e+02
1.574451505015475050e+03,8.360637911493367938e+02,1.304902410441696247e+03,1.489654102731997227e+03,7.552773679405559051e+02,7.447621080868907484e+02,2.314788927531239096e+03,1.075608028360212302e+03,9.484992027282714844e+00,-6.119350194931030273e-01,-1.109132170677185059e+00,2.020000000000000000e+02
1.418533407741768315e+03,1.009428298399552659e+03,1.373414581684434324e+03,1.475477830467402327e+03,8.115838056716183928e+02,8.849999018090070422e+02,2.459755153866084584e+03,1.206432909040055620e+03,9.484992027282714844e+00,-6.119350194931030273e-01,-1.109132170677185059e+00,2.030000000000000000e+02
1.308089980245242259e+03,1.044835120457286621e+03,1.437926349374219626e+03,1.521662275825332017e+03,8.730493727330563161e+02,9.471073858483582626e+02,2.603750713092982551e+03,1.264206223718938872e+03,9.484992027282714844e+00,-6.119350194931030273e-01,-1.109132170677185059e+00,2.040000000000000000e+02
1.358602635898675544e+03,8.965646465064396580e+02,1.403069937925961767e+03,1.556820870772229682e+03,8.608309076408950204e+02,8.529256455735426243e+02,1.722015482906027501e+03,1.168178795033308234e+03,9.484992027282714844e+00,-6.119350194931030273e-01,-1.109132170677185059e+00,2.050000000000000000e+02
1.463103347730954738e+03,7.701707848469350211e+02,1.311780089599297753e+03,1.523725795126203138e+03,7.991434218550775768e+02,7.410983290356703037e+02,9.601716887328620942e+02,1.050987996561956606e+03,9.484992027282714844e+00,-6.119350194931030273e-01,-1.109132170677185059e+00,2.060000000000000000e+02
1.440958798108042174e+03,8.410677811605751231e+02,1.285662378394295501e+03,1.458715741128627087e+03,7.816181672450716178e+02,7.754038363589743312e+02,2.274324150273509076e+03,1.075157903424797496e+03,9.484992027282714844e+00,-6.119350194931030273e-01,-1.109132170677185059e+00,2.070000000000000000e+02
1.288112826890138422e+03,1.013881163323631881e+03,1.356538753626497510e+03,1.442348796208557815e+03,8.409610764063772876e+02,9.176145300027806115e+02,5.029767417313974875e+03,1.208285691703505563e+03,9.446745872497558594e+00,-6.884268522262573242e-01,-1.109132170677185059e+00,2.080000000000000000e+02
1.182505708995239729e+03,1.053794459855279229e+03,1.421989474334136958e+03,1.488874196246865267e+03,9.026591312795312660e+02,9.799669107478539445e+02,6.652520479600108956e+03,1.266971616967285172e+03,9.446745872497558594e+00,-6.884268522262573242e-01,-1.109132170677185059e+00,2.090000000000000000e+02
1.237610293576996810e+03,9.108624838644855117e+02,1.386656586660676112e+03,1.526668721292365717e+03,8.875476066563060158e+02,8.842961197124118371e+02,6.429878225318321711e+03,1.169348909424182239e+03,9.446745872497558594e+00,-6.884268522262573242e-01,-1.109132170677185059e+00,2.100000000000000000e+02
1.345680754560368769e+03,7.887700978508025855e+02,1.294240703403208499e+03,1.496536671326537089e+03,8.214755569887606725e+02,7.686045576737637930e+02,5.958280604100316850e+03,1.048089882319528442e+03,9.446745872497558594e+00,-6.884268522262573242e-01,-1.109132170677185059e+00,2.110000000000000000e+02
1.327042998069669011e+03,8.614397738676937024e+02,1.267339920385380992e+03,1.432589639744417582e+03,7.999165856642835024e+02,7.953236143191647898e+02,6.092960586104234608e+03,1.067631265297530717e+03,9.446745872497558594e+00,-6.884268522262573242e-01,-1.109132170677185059e+00,2.120000000000000000e+02
1.178256845388699730e+03,1.031232730827465957e+03,1.337793528112702006e+03,1.414576895179237454e+03,8.560930696124150927e+02,9.280204040980479476e+02,6.101913190422626030e+03,1.197300978151780100e+03,9.446745872497558594e+00,-6.884268522262573242e-01,-1.109132170677185059e+00,2.130000000000000000e+02
1.076676266102450427e+03,1.065072350511372633e+03,1.402177185080564868e+03,1.457655760466487664e+03,9.150988054359695525e+02,9.836908012112742199e+02,5.718441520696157568e+03,1.253761786897584216e+03,9.446745872497558594e+00,-6.884268522262573242e-01,-1.109132170677185059e+00,2.140000000000000000e+02
1.135202814675883474e+03,9.181211675376107451e+02,1.364628982826842730e+03,1.491853748678057855e+03,8.979051530000583625e+02,8.866613164620173393e+02,5.619749659628078916e+03,1.155120749612413874e+03,9.446745872497558594e+00,-6.884268522262573242e-01,-1.109132170677185059e+00,2.150000000000000000e+02
1.245956472218708768e+03,7.948721799715974612e+02,1.269494087504921026e+03,1.459477351468258803e+03,8.310044055751880023e+02,7.732494728891599607e+02,5.882076098159347566e+03,1.034659339361686307e+03,9.446745872497558594e+00,-6.884268522262573242e-01,-1.109132170677185059e+00,2.160000000000000000e+02
1.228850967312079320e+03,8.659368591851653036e+02,1.240322634542581000e+03,1.395282010405149322e+03,8.094685745725878405e+02,8.032987468191975040e+02,5.848815126400220834e+03,1.055830519283833837e+03,9.446745872497558594e+00,-6.884268522262573242e-01,-1.109132170677185059e+00,2.170000000000000000e+02
1.080086738291661277e+03,1.034251546622002706e+03,1.309853288336394598e+03,1.378430833556367816e+03,8.651991021316896422e+02,9.388527891641840597e+02,5.453458437064044119e+03,1.185504536906318208e+03,9.446745872497558594e+00,-6.884268522262573242e-01,-1.109132170677185059e+00,2.180000000000000000e+02
9.774765659469239836e+02,1.070171926347136377e+03,1.375468210554572579e+03,1.423038527608873210e+03,9.234354160254063117e+02,9.956217041462959969e+02,5.262396830546586898e+03,1.240352235068218079e+03,9.446745872497558594e+00,-6.884268522262573242e-01,-1.109132170677185059e+00,2.190000000000000000e+02
1.034717535733240311e+03,9.265988594849161473e+02,1.341036672619537057e+03,1.458532857832131867e+03,9.070080658247948122e+02,8.973812945247875632e+02,5.406482181985514217e+03,1.141341979624905662e+03,9.446745872497558594e+00,-6.884268522262573242e-01,-1.109132170677185059e+00,2.200000000000000000e+02
1.144582704638236919e+03,8.017998312484578491e+02,1.249165792570461917e+03,1.426552721583945640e+03,8.426834816547959690e+02,7.818197460286437490e+02,5.493619908372425016e+03,1.022538601149655960e+03,9.446745872497558594e+00,-6.884268522262573242e-01,-1.109132170677185059e+00,2.210000000000000000e+02
1.127925043000151163e+03,8.660521529077182095e+02,1.221661757310232360e+03,1.360975316585353994e+03,8.229772991078405084e+02,8.106428552174336346e+02,5.335545754348063383e+03,1.044825588260864834e+03,9.446745872497558594e+00,-6.884268522262573242e-01,-1.109132170677185059e+00,2.220000000000000000e+02
9.815411761561208550e+02,1.027866716403087594e+03,1.290755451982675368e+03,1.341444248909613179e+03,8.779104854779079687e+02,9.462797605417308660e+02,5.102251258100341147e+03,1.173957900217215411e+03,9.446745872497558594e+00,-6.884268522262573242e-01,-1.109132170677185059e+00,2.230000000000000000e+02
8.820843385396765370e+02,1.060538416920970349e+03,1.354384785068481278e+03,1.384057668317841035e+03,9.337713945477269135e+02,1.004025268202250345e+03,4.977367021725553968e+03,1.228464376228181209e+03,9.446745872497558594e+00,-6.884268522262573242e-01,-1.109132170677185059e+00,2.240000000000000000e+02
9.413363357266753155e+02,9.158008201044299312e+02,1.317868038404730214e+03,1.419238428385409406e+03,9.147203708289575843e+02,9.074022049235820759e+02,5.004447826623063520e+03,1.129866993580430517e+03,9.446745872497558594e+00,-6.884268522262573242e-01,-1.109132170677185059e+00,2.250000000000000000e+02
1.051951266901225608e+03,7.916254943846215610e+02,1.225492163704439690e+03,1.387890016354365343e+03,8.470731751329822146e+02,7.931058539618372834e+02,5.081800697532895356e+03,1.010340383512012068e+03,9.446745872497558594e+00,-6.884268522262573242e-01,-1.109132170677185059e+00,2.260000000000000000e+02
1.036252709672717629e+03,8.587183932481964348e+02,1.198831789707662665e+03,1.323468439126466365e+03,8.233098174422623288e+02,8.214471713414818623e+02,5.018202255539378712e+03,1.030475282478899999e+03,9.446745872497558594e+00,-6.884268522262573242e-01,-1.109132170677185059e+00,2.270000000000000000e+02
8.918705809553821382e+02,1.023397746770395543e+03,1.267760875627496034e+03,1.305550830164674608e+03,8.752454694174848555e+02,9.553532615160286241e+02,4.781105236440564113e+03,1.158171454563748512e+03,9.446745872497558594e+00,-6.884268522262573242e-01,-1.109132170677185059e+00,2.280000000000000000e+02
7.955096792652279873e+02,1.056264298089861768e+03,1.329385942014352622e+03,1.348643232120460880e+03,9.302384740169729866e+02,1.011924847809985977e+03,4.602155884548772519e+03,1.212654861574904089e+03,9.446745872497558594e+00,-6.884268522262573242e-01,-1.109132170677185059e+00,2.290000000000000000e+02
8.592859541127309058e+02,9.100089053966394204e+02,1.291165079537924839e+03,1.381537463956022066e+03,9.110615622653410810e+02,9.143214894662678489e+02,4.652318756188064071e+03,1.113476015175857128e+03,9.446745872497558594e+00,-6.884268522262573242e-01,-1.109132170677185059e+00,2.300000000000000000e+02
9.756758596586323620e+02,7.855486822251775720e+02,1.198298704326895631e+03,1.346583404686100948e+03,8.424375572727071813e+02,7.969979878675499094e+02,4.768240697719907985e+03,9.911674650673824090e+02,9.446745872497558594e+00,-6.884268522262573242e-01,-1.109132170677185059e+00,2.310000000000000000e+02
9.655046021960747566e+02,8.541494692560650037e+02,1.170045677234852974e+03,1.280076003725235296e+03,8.172732648601850087e+02,8.203726053902767035e+02,4.687882756426741253e+03,1.006756117444922438e+03,9.446745872497558594e+00,-6.884268522262573242e-01,-1.109132170677185059e+00,2.320000000000000000e+02
8.250518395410099401e+02,1.020328879896996114e+03,1.235511320473797923e+03,1.261885259198098993e+03,8.687264554159814907e+02,9.501323452823569369e+02,4.435119402587839431e+03,1.129655030605118100e+03,9.446745872497558594e+00,-6.884268522262573242e-01,-1.109132170677185059e+00,2.330000000000000000e+02
7.310007940772970869e+02,1.053617846642173390e+03,1.294931552505519676e+03,1.305047813360068631e+03,9.244883311853723171e+02,1.004458841634626879e+03,4.276661963706392271e+03,1.180563551244024893e+03,9.446745872497558594e+00,-6.884268522262573242e-01,-1.109132170677185059e+00,2.340000000000000000e+02
7.960680168059934658e+02,9.070936351921291134e+02,1.257475502389211215e+03,1.338159136520684115e+03,9.068234381124530046e+02,9.050644604916619755e+02,4.339584626706543531e+03,1.079951108935047387e+03,9.446745872497558594e+00,-6.884268522262573242e-01,-1.109132170677185059e+00,2.350000000000000000e+02
9.136693923708180591e+02,7.819953300868985480e+02,1.165816942360762368e+03,1.303912499727421164e+03,8.401537550840521362e+02,7.861448928986819737e+02,4.445861750268535616e+03,9.584122072511786428e+02,9.446745872497558594e+00,-6.884268522262573242e-01,-1.109132170677185059e+00,2.360000000000000000e+02
9.060028295851961957e+02,8.497207211167151399e+02,1.137664837475619606e+03,1.237791939958013700e+03,8.170445339342613806e+02,8.094148311864878451e+02,4.366578645624118508e+03,9.763456650999296471e+02,9.446745872497558594e+00,-6.884268522262573242e-01,-1.109132170677185059e+00,2.370000000000000000e+02
7.694132587839430926e+02,1.015818719544970463e+03,1.204214948110953173e+03,1.219270601177791832e+03,8.695772076248322264e+02,9.399405081718200563e+02,4.125814417140084515e+03,1.102085098561374252e+03,9.446745872497558594e+00,-6.884268522262573242e-01,-1.109132170677185059e+00,2.380000000000000000e+02
6.782324904539482304e+02,1.051201362042241271e+03,1.266346968884251510e+03,1.262558013944307277e+03,9.243662925614053165e+02,9.940311887786392617e+02,3.971569961282037184e+03,1.155024225363074493e+03,9.484992027282714844e+00,-6.501809358596801758e-01,-1.147378087043762207e+00,2.390000000000000000e+02
7.431078363412161707e+02,9.086756186219517986e+02,1.230130738049456340e+03,1.296913237445495270e+03,9.038214985383651765e+02,8.944888186881976253e+02,4.033189687777766267e+03,1.055071089674196628e+03,9.484992027282714844e+00,-6.501809358596801758e-01,-1.147378087043762207e+00,2.400000000000000000e+02
8.584281213425156238e+02,7.871447617473954779e+02,1.136529554915041444e+03,1.264180305408515778e+03,8.334238784250896970e+02,7.782757442534289112e+02,4.143047399780192791e+03,9.336895144223135503e+02,9.484992027282714844e+00,-6.501809358596801758e-01,-1.147378087043762207e+00,2.410000000000000000e+02
8.488423787833662573e+02,8.554192823196426616e+02,1.105496029931784506e+03,1.199026264759611877e+03,8.068203069666951706e+02,8.058080778237317645e+02,4.067948758354856182e+03,9.523152178502691640e+02,9.484992027282714844e+00,-6.501809358596801758e-01,-1.147378087043762207e+00,2.420000000000000000e+02
7.119378400105533728e+02,1.018202227699450304e+03,1.170432022257919471e+03,1.180361321979871718e+03,8.573446786649064961e+02,9.373702082307822820e+02,3.830950612034743244e+03,1.079034174797540800e+03,9.484992027282714844e+00,-6.501809358596801758e-01,-1.147378087043762207e+00,2.430000000000000000e+02
6.221188479549164185e+02,1.047819887698219645e+03,1.232156570110221310e+03,1.221581547339746976e+03,9.127547860423333077e+02,9.881071485430065877e+02,3.679836915756684903e+03,1.132538800082040325e+03,9.484992027282714844e+00,-6.501809358596801758e-01,-1.147378087043762207e+00,2.440000000000000000e+02
6.896013438720310660e+02,8.994546929846924286e+02,1.196647503492933083e+03,1.252871707641924331e+03,8.947311583250393596e+02,8.849591052752421092e+02,3.745176332711915165e+03,1.032820408271470114e+03,9.484992027282714844e+00,-6.501809358596801758e-01,-1.147378087043762207e+00,2.450000000000000000e+02
8.074780009542591870e+02,7.731450297424885321e+02,1.105008059986525950e+03,1.219377638727101839e+03,8.259283134445076939e+02,7.677984757810991141e+02,3.859809076464882310e+03,9.113963926407695908e+02,9.484992027282714844e+00,-6.501809358596801758e-01,-1.147378087043762207e+00,2.460000000000000000e+02
7.990866054285352220e+02,8.372022499364147734e+02,1.075251014364842376e+03,1.157080652857523091e+03,7.978873226154519216e+02,7.953650053867640963e+02,3.790145235327287082e+03,9.289902989859142508e+02,9.484992027282714844e+00,-6.501809358596801758e-01,-1.147378087043762207e+00,2.470000000000000000e+02
6.621909871811894845e+02,9.963494402602827904e+02,1.137759592075035471e+03,1.141606231048733207e+03,8.446986859211292540e+02,9.265190207194768846e+02,3.559283129283245216e+03,1.053773281202617454e+03,9.484992027282714844e+00,-6.501809358596801758e-01,-1.147378087043762207e+00,2.480000000000000000e+02
5.719983656324784533e+02,1.024431417409966798e+03,1.193217205340139117e+03,1.183084266726014903e+03,8.965257387630599624e+02,9.784710020952597915e+02,3.414404171839732953e+03,1.106462062885620981e+03,9.484992027282714844e+00,-6.501809358596801758e-01,-1.147378087043762207e+00,2.490000000000000000e+02
6.386331438345932838e+02,8.771556898012768215e+02,1.151166050939275920e+03,1.212798416955737594e+03,8.768355408508823530e+02,8.793729507178031781e+02,3.484057516016542650e+03,1.008784903208565083e+03,9.484992027282714844e+00,-6.501809358596801758e-01,-1.147378087043762207e+00,2.500000000000000000e+02
7.552472286846768839e+02,7.522954910789649148e+02,1.056324203692204719e+03,1.178621655537535844e+03,8.084158930851226614e+02,7.660879400633912155e+02,3.600425948072761457e+03,8.908292385767849737e+02,9.484992027282714844e+00,-6.501809358596801758e-01,-1.147378087043762207e+00,2.510000000000000000e+02
7.465060639279872703e+02,8.155683278228748350e+02,1.027295149090471568e+03,1.117159811902023648e+03,7.814138758052513367e+02,7.942136149914249472e+02,3.532280727112924069e+03,9.099388784932580165e+02,9.484992027282714844e+00,-6.501809358596801758e-01,-1.147378087043762207e+00,2.520000000000000000e+02
6.110541917723076040e+02,9.722609812818618593e+02,1.093121314737139073e+03,1.103773438862483090e+03,8.281626162806996945e+02,9.231083910543829916e+02,3.304822160825176979e+03,1.033088537726916911e+03,9.484992027282714844e+00,-6.501809358596801758e-01,-1.147378087043762207e+00,2.530000000000000000e+02
5.232114641555035632e+02,9.996616231972548121e+02,1.153813679115244668e+03,1.148878442536832154e+03,8.780615084749497328e+02,9.711204701229062266e+02,3.164376396970797941e+03,1.082794519874369144e+03,9.484992027282714844e+00,-6.501809358596801758e-01,-1.147378087043762207e+00,2.540000000000000000e+02
5.921651660540155717e+02,8.562328594676446301e+02,1.118401619907702297e+03,1.182737347515283545e+03,8.548313992340417826e+02,8.655048897951082836e+02,3.238137142539057095e+03,9.819454785448415350e+02,9.484992027282714844e+00,-6.501809358596801758e-01,-1.147378087043762207e+00,2.550000000000000000e+02
7.114489567521704885e+02,7.386565385726589739e+02,1.029216980717233128e+03,1.150534190433241747e+03,7.822207207186775122e+02,7.436458373127779851e+02,3.359002177278500312e+03,8.597875986422504866e+02,9.484992027282714844e+00,-6.501809358596801758e-01,-1.147378087043762207e+00,2.560000000000000000e+02
7.062001892524112918e+02,8.083214585574969533e+02,1.002481250738301242e+03,1.087639763641256650e+03,7.525677503000451907e+02,7.653131957266759855e+02,3.296567000958877543e+03,8.742615149634330010e+02,9.484992027282714844e+00,-6.501809358596801758e-01,-1.147378087043762207e+00,2.570000000000000000e+02
5.746643240124376462e+02,9.672759887080746921e+02,1.068479345849632409e+03,1.071133258748268418e+03,8.005493040451965499e+02,8.933775301688137915e+02,3.074373855716066828e+03,9.955031889654601400e+02,9.484992027282714844e+00,-6.501809358596801758e-01,-1.147378087043762207e+00,2.580000000000000000e+02
4.906225305198076967e+02,9.932349088872524590e+02,1.130020142967773609e+03,1.113853891557963834e+03,8.551757073207600115e+02,9.454404652937109859e+02,2.937491857037330192e+03,1.047450209365208138e+03,9.484992027282714844e+00,-6.501809358596801758e-01,-1.147378087043762207e+00,2.590000000000000000e+02
5.629770589901509084e+02,8.457751808224320484e+02,1.095477139188719775e+03,1.146955214761733259e+03,8.374764412708173040e+02,8.460570276409025610e+02,3.013519843624490022e+03,9.507389121017486104e+02,9.523238182067871094e+00,-6.884268522262573242e-01,-1.109132170677185059e+00,2.600000000000000000e+02
6.849098284118153970e+02,7.209498375667335495e+02,1.004678842548311877e+03,1.114904503867790481e+03,7.700648075905100995e+02,7.303054528037891941e+02,3.136684268035198329e+03,8.325475420517104794e+02,9.523238182067871094e+00,-6.884268522262573242e-01,-1.109132170677185059e+00,2.610000000000000000e+02
6.814154769850792945e+02,7.813755844833131050e+02,9.748280672574137498e+02,1.051814742388169179e+03,7.458689107275304195e+02,7.554230458784604707e+02,3.076690420391329098e+03,8.508129670678054026e+02,9.523238182067871094e+00,-6.884268522262573242e-01,-1.109132170677185059e+00,2.620000000000000000e+02
5.510966712046028988e+02,9.341545470620221749e+02,1.039116799628682202e+03,1.034328694379215449e+03,7.982178400872071506e+02,8.827228531095624930e+02,2.856615300593111897e+03,9.748827187190890982e+02,9.523238182067871094e+00,-6.884268522262573242e-01,-1.109132170677185059e+00,2.630000000000000000e+02
4.681621031970389595e+02,9.598486273931894175e+02,1.100086417606578834e+03,1.076092653247513226e+03,8.535180253038925002e+02,9.315668486568129083e+02,2.720920817666159564e+03,1.026973502648441354e+03,9.523238182067871094e+00,-6.884268522262573242e-01,-1.109132170677185059e+00,2.640000000000000000e+02
5.419410758069116127e+02,8.147654484796003089e+02,1.064489419553552580e+03,1.108862299437229012e+03,8.332604434690547350e+02,8.292474350473148661e+02,2.797918184583082621e+03,9.284654465439489286e+02,9.523238182067871094e+00,-6.884268522262573242e-01,-1.109132170677185059e+00,2.650000000000000000e+02
6.662962273598350293e+02,6.917489578118374993e+02,9.734105696179058214e+02,1.076553112446285013e+03,7.625981919490577638e+02,7.108143293539023944e+02,2.922952336009730061e+03,8.089272103442654043e+02,9.523238182067871094e+00,-6.884268522262573242e-01,-1.109132170677185059e+00,2.660000000000000000e+02
6.663027682356459991e+02,7.549887867318584540e+02,9.451156464386895095e+02,1.013097473864365384e+03,7.344589555431239205e+02,7.326270332019194029e+02,2.866660890162718715e+03,8.261171621242719993e+02,9.523238182067871094e+00,-6.884268522262573242e-01,-1.109132170677185059e+00,2.670000000000000000e+02
5.390396621498020977e+02,9.125043082372203571e+02,1.009669610539963287e+03,9.962023114732619433e+02,7.809165983717075505e+02,8.575344656616798602e+02,2.652148779034221661e+03,9.473105221000023448e+02,9.523238182067871094e+00,-6.884268522262573242e-01,-1.109132170677185059e+00,2.680000000000000000e+02
4.566428675580755225e+02,9.414183943382649886e+02,1.066682233956316850e+03,1.039801292683674546e+03,8.303765463493045900e+02,9.064900305610099167e+02,2.522638521668966860e+03,9.949563897909611114e+02,9.523238182067871094e+00,-6.884268522262573242e-01,-1.109132170677185059e+00,2.690000000000000000e+02
5.279502869779898901e+02,7.961005073119158624e+02,1.025268975714682711e+03,1.074175097919369364e+03,8.075911536082603561e+02,8.055710486589050561e+02,2.604854416107646102e+03,8.928310734050510291e+02,9.523238182067871094e+00,-6.884268522262573242e-01,-1.109132170677185059e+00,2.700000000000000000e+02
6.483374187695535511e+02,6.718447403811323966e+02,9.304120936125709704e+02,1.042284207009128295e+03,7.371934902241600867e+02,6.884812200451651734e+02,2.733638986197212944e+03,7.717737753445380804e+02,9.523238182067871094e+00,-6.884268522262573242e-01,-1.109132170677185059e+00,2.710000000000000000e+02
6.448515619779991539e+02,7.335330886764313618e+02,9.004378597683507905e+02,9.787860714439011645e+02,7.094639213167956768e+02,7.124195282049258822e+02,2.680434972998453304e+03,7.893927810780996879e+02,9.523238182067871094e+00,-6.884268522262573242e-01,-1.109132170677185059e+00,2.720000000000000000e+02
5.153813497967166768e+02,8.863473924470126803e+02,9.636593875052931253e+02,9.618713839273750636e+02,7.563647798444453656e+02,8.405222267065300912e+02,2.469324002418961754e+03,9.130061237142963364e+02,9.523238182067871094e+00,-6.884268522262573242e-01,-1.109132170677185059e+00,2.730000000000000000e+02
4.314426564652312663e+02,9.081924647801897663e+02,1.019988886577597441e+03,1.005313709237552757e+03,8.074631622583037824e+02,8.920599968325441296e+02,2.343677932418941054e+03,9.650220045533478697e+02,9.523238182067871094e+00,-6.884268522262573242e-01,-1.109132170677185059e+00,2.740000000000000000e+02
5.009760415858399938e+02,7.596818414670306083e+02,9.793801676561815839e+02,1.040520988071482861e+03,7.863666887354265782e+02,7.922567098594663548e+02,2.429430719966669130e+03,8.681003441237862717e+02,9.523238182067871094e+00,-6.884268522262573242e-01,-1.109132170677185059e+00,2.750000000000000000e+02
6.195247466318469378e+02,6.400121888315024989e+02,8.857018350543239649e+02,1.011936749395643346e+03,7.157750778495319537e+02,6.752229245699127205e+02,2.560889468930046860e+03,7.511550137926251409e+02,9.523238182067871094e+00,-6.884268522262573242e-01,-1.109132170677185059e+00,2.760000000000000000e+02
6.154008113360323478e+02,7.114721359662835312e+02,8.561040893123517890e+02,9.527435980945811025e+02,6.861953700211415708e+02,6.974251433225745131e+02,2.509905499545682687e+03,7.699725333259357285e+02,9.523238182067871094e+00,-6.884268522262573242e-01,-1.109132170677185059e+00,2.770000000000000000e+02
4.877799923823695281e+02,8.744444145514335105e+02,9.200472224211825960e+02,9.378241877198870498e+02,7.306636473384114652e+02,8.216448647599627293e+02,2.301393592197789985e+03,8.913675909717276227e+02,9.523238182067871094e+00,-6.884268522262573242e-01,-1.109132170677185059e+00,2.780000000000000000e+02
4.085537347087447415e+02,9.033188001390717545e+02,9.790207021360565705e+02,9.804398569938057335e+02,7.788421144068051944e+02,8.701267392336521880e+02,2.178091144521575188e+03,9.394376221565671585e+02,9.523238182067871094e+00,-6.884268522262573242e-01,-1.109132170677185059e+00,2.790000000000000000e+02
4.846135946556933050e+02,7.560890155588604102e+02,9.420188169631874189e+02,1.014176827359086019e+03,7.550840523740516801e+02,7.709810976755125012e+02,2.266160660531655594e+03,8.394526038154817797e+02,9.523238182067871094e+00,-6.884268522262573242e-01,-1.109132170677185059e+00,2.800000000000000000e+02
6.093189201420937025e+02,6.310991223486489616e+02,8.507232912707604555e+02,9.839834236932001659e+02,6.843428896234909189e+02,6.562576551732199732e+02,2.399570019186714489e+03,7.214431030917057797e+02,9.523238182067871094e+00,-6.884268522262573242e-01,-1.109132170677185059e+00,2.810000000000000000e+02
6.095647154478028824e+02,6.931926336938122404e+02,8.225566237438979442e+02,9.217723825349075923e+02,6.579947008256385743e+02,6.784522530086796905e+02,2.350272086462835432e+03,7.404940329100081726e+02,9.523238182067871094e+00,-6.884268522262573242e-01,-1.109132170677185059e+00,2.820000000000000000e+02
4.853560655574292468e+02,8.474879166070459178e+02,8.893963761902668921e+02,9.031456133013198269e+02,7.069848185927803570e+02,8.001315491699315317e+02,2.143072749048809783e+03,8.625770984341197618e+02,9.523238182067871094e+00,-6.884268522262573242e-01,-1.109132170677185059e+00,2.830000000000000000e+02
4.097298348893127695e+02,8.725381506889716547e+02,9.532351490344699414e+02,9.435254183167999145e+02,7.589867424962194491e+02,8.457367821894677036e+02,2.021224882166843599e+03,9.116788531420279469e+02,9.523238182067871094e+00,-6.884268522262573242e-01,-1.109132170677185059e+00,2.840000000000000000e+02
4.884806225803986308e+02,7.274027591336780461e+02,9.209052673815331218e+02,9.762805334111417324e+02,7.390609657286513539e+02,7.441296027608786972e+02,2.110448114380946208e+03,8.132431815438103513e+02,9.484992027282714844e+00,-7.266727685928344727e-01,-1.070886254310607910e+00,2.850000000000000000e+02
6.133274543407751480e+02,6.069136125572840683e+02,8.326948845972401614e+02,9.447266597566667770e+02,6.731420538596557890e+02,6.279525773773875699e+02,2.245582206703955308e+03,6.971022968249453697e+02,9.484992027282714844e+00,-7.266727685928344727e-01,-1.070886254310607910e+00,2.860000000000000000e+02
6.119980000692194153e+02,6.709616502042226784e+02,8.060491265222117363e+02,8.815966833827333176e+02,6.507592688770200766e+02,6.515798083029676491e+02,2.199035038553400227e+03,7.174553513192113314e+02,9.484992027282714844e+00,-7.266727685928344727e-01,-1.070886254310607910e+00,2.870000000000000000e+02
4.861643596370922751e+02,8.244525054185960471e+02,8.718430577861799975e+02,8.642209443204956187e+02,7.000964026335823291e+02,7.771366491703283828e+02,1.995318081713063293e+03,8.392686390383769321e+02,9.484992027282714844e+00,-7.266727685928344727e-01,-1.070886254310607910e+00,2.880000000000000000e+02
4.082807662743143737e+02,8.500094485459921998e+02,9.316145626543948310e+02,9.064759964893892175e+02,7.491514334742460051e+02,8.249567780057714117e+02,1.876988786834393977e+03,8.865825248439687130e+02,9.484992027282714844e+00,-7.266727685928344727e-01,-1.070886254310607910e+00,2.890000000000000000e+02
4.831277418846657383e+02,7.079212726073219528e+02,8.956893743794298643e+02,9.389093525525295263e+02,7.257712885781602381e+02,7.216447270910775842e+02,1.969032874540243938e+03,7.857232931709349941e+02,9.484992027282714844e+00,-7.266727685928344727e-01,-1.070886254310607910e+00,2.900000000000000000e+02
6.040036781986018468e+02,5.902667016413561214e+02,8.081158961372275371e+02,9.057110064330772730e+02,6.571825416411265905e+02,6.026601998652640759e+02,2.106227304319625546e+03,6.668642021576906700e+02,9.484992027282714844e+00,-7.266727685928344727e-01,-1.070886254310607910e+00,2.910000000000000000e+02
6.005492843692045426e+02,6.562468309672494797e+02,7.840761840065024444e+02,8.425322985870552657e+02,6.322148979587873328e+02,6.254966977405892976e+02,2.062061865024050348e+03,6.842556808593144524e+02,9.484992027282714844e+00,-7.266727685928344727e-01,-1.070886254310607910e+00,2.920000000000000000e+02
4.734005129303041031e+02,8.125629294987429603e+02,8.492502775795019261e+02,8.264866436383017572e+02,6.792885101037027198e+02,7.517497168080499250e+02,1.862051982847464387e+03,8.039187059213836619e+02,9.484992027282714844e+00,-7.266727685928344727e-01,-1.070886254310607910e+00,2.930000000000000000e+02
3.931367454269493464e+02,8.406966960050231137e+02,9.050086309602629626e+02,8.691664286284394620e+02,7.277125804790521215e+02,8.004387264386150491e+02,1.748069904550691717e+03,8.511494060192471807e+02,9.484992027282714844e+00,-7.266727685928344727e-01,-1.070886254310607910e+00,2.940000000000000000e+02
4.650802554187794158e+02,6.978093441307628382e+02,8.656453407719000097e+02,9.015312591817764769e+02,7.050284519033029937e+02,6.986040060904433631e+02,1.843743300466812798e+03,7.520731798076540144e+02,9.484992027282714844e+00,-7.266727685928344727e-01,-1.070886254310607910e+00,2.950000000000000000e+02
5.839834936748447944e+02,5.764415036246718955e+02,7.764883940814852394e+02,8.699340852935347357e+02,6.367440703010579455e+02,5.813951179142804904e+02,1.984085476904976531e+03,6.358675546878475870e+02,9.484992027282714844e+00,-7.266727685928344727e-01,-1.070886254310607910e+00,2.960000000000000000e+02
5.791775100329505221e+02,6.386925757348708430e+02,7.511245898710403708e+02,8.095325968627876136e+02,6.114157535945359996e+02,6.042772436797986302e+02,1.943777857615554240e+03,6.564690382356493501e+02,9.484992027282714844e+00,-7.266727685928344727e-01,-1.070886254310607910e+00,2.970000000000000000e+02
4.499427751764924324e+02,7.920058174973200948e+02,8.152138356065697735e+02,7.951190256026457064e+02,6.586514140945910185e+02,7.288023628107512195e+02,1.747981679351687490e+03,7.799323117180247209e+02,9.484992027282714844e+00,-7.266727685928344727e-01,-1.070886254310607910e+00,2.980000000000000000e+02
3.660602512595396547e+02,8.178446254819500609e+02,8.708663620075731160e+02,8.382848560608654225e+02,7.077796319939498062e+02,7.771525386903613253e+02,1.637033874465385452e+03,8.312185892114302987e+02,9.484992027282714844e+00,-7.266727685928344727e-01,-1.070886254310607910e+00,2.990000000000000000e+02
4.329392381403995387e+02,6.754399379286551266e+02,8.304707858056826808e+02,8.719631077695230488e+02,6.847237921009200363e+02,6.782300461897721107e+02,1.734378784181346418e+03,7.358513949733605841e+02,9.484992027282714844e+00,-7.266727685928344727e-01,-1.070886254310607910e+00,3.000000000000000000e+02
5.469560193410943612e+02,5.587798648896878149e+02,7.369664132623183832e+02,8.430384562554281729e+02,6.137971808730108023e+02,5.648962251012380875e+02,1.876245252660672122e+03,6.218307056573721638e+02,9.484992027282714844e+00,-7.266727685928344727e-01,-1.070886254310607910e+00,3.010000000000000000e+02
5.403097904853275395e+02,6.279534987005426956e+02,7.054903722224280500e+02,7.855821358038774633e+02,5.841022202461863344e+02,5.895954836230448564e+02,1.837882070119449054e+03,6.416905093535278866e+02,9.484992027282714844e+00,-7.266727685928344727e-01,-1.070886254310607910e+00,3.020000000000000000e+02
4.132861874686277588e+02,7.871837020856619347e+02,7.660357181341441901e+02,7.735549528537812876e+02,6.271641961900495517e+02,7.139122069509485300e+02,1.644096597832423868e+03,7.621794226626971067e+02,9.484992027282714844e+00,-7.266727685928344727e-01,-1.070886254310607910e+00,3.030000000000000000e+02
3.333275994888936111e+02,8.163040926924732048e+02,8.230543957812988083e+02,8.179371017675402982e+02,6.743243185025057755e+02,7.618322126400416892e+02,1.535080593833044986e+03,8.114372171738377801e+02,9.484992027282714844e+00,-7.266727685928344727e-01,-1.070886254310607910e+00,3.040000000000000000e+02
4.036573354082029255e+02,6.745035155650512024e+02,7.878609044037511921e+02,8.511788140553508129e+02,6.521185519033097080e+02,6.627737630001411162e+02,1.634321799118064519e+03,7.168037312662145268e+02,9.484992027282714844e+00,-7.266727685928344727e-01,-1.070886254310607910e+00,3.050000000000000000e+02
5.211395693146514532e+02,5.563591860833221290e+02,7.012473959126546106e+02,8.211541643040254712e+02,5.837826753404842748e+02,5.489044151975449495e+02,1.777916107899196504e+03,6.045837783392780693e+02,9.484992027282714844e+00,-7.266727685928344727e-01,-1.070886254310607910e+00,3.060000000000000000e+02
5.183237091325208894e+02,6.222000131540480652e+02,6.766287272160589055e+02,7.635788805506235803e+02,5.567553115528280614e+02,5.726521264708499075e+02,1.741303143897588598e+03,6.253182503094412823e+02,9.484992027282714844e+00,-7.266727685928344727e-01,-1.070886254310607910e+00,3.070000000000000000e+02
3.937656661446089856e+02,7.762587652793154120e+02,7.422858509639481781e+02,7.520001862998105935e+02,6.010403217422463058e+02,6.963130471788026625e+02,1.549696546491992194e+03,7.458773198665694508e+02,9.484992027282714844e+00,-7.266727685928344727e-01,-1.070886254310607910e+00,3.080000000000000000e+02
3.142139180084996042e+02,8.003101334655293613e+02,8.016122066720818111e+02,7.957429624192845949e+02,6.473135156378521060e+02,7.438875467993057100e+02,1.443118739783822093e+03,7.946268596905774757e+02,9.484992027282714844e+00,-7.266727685928344727e-01,-1.070886254310607910e+00,3.090000000000000000e+02
3.850767875133460620e+02,6.569574476442194282e+02,7.672836678374806070e+02,8.274840130896154733e+02,6.239467491719806276e+02,6.439584048924225499e+02,1.544154225793259684e+03,6.984175844870660512e+02,9.484992027282714844e+00,-7.266727685928344727e-01,-1.070886254310607910e+00,3.100000000000000000e+02
5.051879661120692617e+02,5.406714841132597940e+02,6.827842450307944091e+02,7.962108501498732949e+02,5.576612679325953650e+02,5.280699576821789378e+02,1.690074866111492156e+03,5.844689485040471482e+02,9.484992027282714844e+00,-7.266727685928344727e-01,-1.070886254310607910e+00,3.110000000000000000e+02
5.068416002536105225e+02,6.072720038238639972e+02,6.616868560701113893e+02,7.368814267480011040e+02,5.364199076400509512e+02,5.487314649806758098e+02,1.656503322718097479e+03,6.048850437239561870e+02,9.484992027282714844e+00,-7.266727685928344727e-01,-1.147378087043762207e+00,3.120000000000000000e+02
3.879110554600192700e+02,7.585081126475452038e+02,7.294665080588165438e+02,7.225313305133204267e+02,5.867096451679681195e+02,6.690099103144275432e+02,1.467602060682678712e+03,7.257605046306089207e+02,9.484992027282714844e+00,-7.266727685928344727e-01,-1.147378087043762207e+00,3.130000000000000000e+02
3.145289394192805048e+02,7.781857299576604419e+02,7.880612566452655301e+02,7.647956574328709394e+02,6.370188067922099435e+02,7.143577733833844832e+02,1.362537985013026628e+03,7.738374459528058651e+02,9.484992027282714844e+00,-7.266727685928344727e-01,-1.147378087043762207e+00,3.140000000000000000e+02
3.900778780207620002e+02,6.301126713252742775e+02,7.518276456944367965e+02,7.975807588410971221e+02,6.170714174291424570e+02,6.143659084288592567e+02,1.464955411059025209e+03,6.769672490641169134e+02,9.484992027282714844e+00,-7.266727685928344727e-01,-1.147378087043762207e+00,3.150000000000000000e+02
5.114048384835041361e+02,5.077396657753670297e+02,6.658330658788036089e+02,7.666887025309661112e+02,5.536143651600141311e+02,4.995618992811250791e+02,1.611926992947468534e+03,5.640430490059370641e+02,9.484992027282714844e+00,-7.266727685928344727e-01,-1.147378087043762207e+00,3.160000000000000000e+02
5.116571356467029545e+02,5.685868272744010028e+02,6.437306815597185050e+02,7.046277717819539248e+02,5.320442132327589206e+02,5.204634329824184533e+02,1.579038423977886850e+03,5.859018650888465345e+02,9.484992027282714844e+00,-7.266727685928344727e-01,-1.147378087043762207e+00,3.170000000000000000e+02
3.910914554892806336e+02,7.182469952856008604e+02,7.118411026493595273e+02,6.873003250176188885e+02,5.792102742848073831e+02,6.401330003725452116e+02,1.390795860575293773e+03,7.066902000896407117e+02,9.484992027282714844e+00,-7.266727685928344727e-01,-1.147378087043762207e+00,3.180000000000000000e+02
3.166663251926875091e+02,7.404440033584505727e+02,7.729344169610449171e+02,7.293393330097787839e+02,6.270660491550333973e+02,6.857900774087247555e+02,1.286669448359636590e+03,7.538303783187147928e+02,9.484992027282714844e+00,-7.266727685928344727e-01,-1.147378087043762207e+00,3.190000000000000000e+02
3.914276929651095998e+02,5.956138781003646727e+02,7.387924949591033510e+02,7.627723698356494424e+02,6.053605928898250568e+02,5.872866661014268175e+02,1.389602658651143429e+03,6.561885387470319984e+02,9.484992027282714844e+00,-7.266727685928344727e-01,-1.147378087043762207e+00,3.200000000000000000e+02
5.121883270441758214e+02,4.762876034824621456e+02,6.505848553927207831e+02,7.314410258419775346e+02,5.379992656725698907e+02,4.736720914383040508e+02,1.536324507630444714e+03,5.418457269271893892e+02,9.484992027282714844e+00,-7.266727685928344727e-01,-1.147378087043762207e+00,3.210000000000000000e+02
5.115650180201482726e+02,5.409736564677732531e+02,6.226399992754668347e+02,6.702863931064712233e+02,5.120779390120405878e+02,4.953716423195437528e+02,1.503733971047178784e+03,5.620542870489480265e+02,9.484992027282714844e+00,-7.266727685928344727e-01,-1.147378087043762207e+00,3.220000000000000000e+02
3.889832945890011615e+02,6.938958735205451376e+02,6.860360273063670320e+02,6.570261361976081389e+02,5.591646763210883364e+02,6.166751320107141510e+02,1.317282005941735406e+03,6.835471871182999166e+02,9.484992027282714844e+00,-7.266727685928344727e-01,-1.147378087043762207e+00,3.230000000000000000e+02
3.125430970897286898e+02,7.167667418054152222e+02,7.460509494454563537e+02,7.032746447353711119e+02,6.101627248209842946e+02,6.641984963392569625e+02,1.215335993550019339e+03,7.339643938761728350e+02,9.484992027282714844e+00,-7.266727685928344727e-01,-1.147378087043762207e+00,3.240000000000000000e+02
3.874988437514475663e+02,5.714405996528948890e+02,7.126971223159271176e+02,7.381868437952834938e+02,5.892516141770611284e+02,5.660900589282864530e+02,1.319813144035637379e+03,6.390084210546410759e+02,9.484992027282714844e+00,-7.266727685928344727e-01,-1.147378087043762207e+00,3.250000000000000000e+02
5.101155570555129088e+02,4.534020271285262424e+02,6.248137663154666370e+02,7.071761332216483424e+02,5.195803850291049457e+02,4.524005436068182462e+02,1.468216165895573795e+03,5.253085154241052805e+02,9.484992027282714844e+00,-7.266727685928344727e-01,-1.147378087043762207e+00,3.260000000000000000e+02
5.102187213530123699e+02,5.214135896296174906e+02,5.958827663931697316e+02,6.473791802468222158e+02,4.920288832500846183e+02,4.762958901953243185e+02,1.438059739155469288e+03,5.457104337088603643e+02,9.484992027282714844e+00,-7.266727685928344727e-01,-1.147378087043762207e+00,3.270000000000000000e+02
3.866682506592987920e+02,6.781072754258566420e+02,6.565273761077005474e+02,6.359444247935025487e+02,5.383690372887249396e+02,6.017627377719181823e+02,1.253874654151688446e+03,6.672169071309144783e+02,9.484992027282714844e+00,-7.266727685928344727e-01,-1.147378087043762207e+00,3.280000000000000000e+02
3.095109528036773554e+02,7.052067103071240126e+02,7.123311061952044838e+02,6.836835333198832814e+02,5.866120886093049194e+02,6.521658301854149613e+02,1.153323575329835876e+03,7.158851498701296805e+02,9.484992027282714844e+00,-7.266727685928344727e-01,-1.147378087043762207e+00,3.290000000000000000e+02
3.846265780407338752e+02,5.656345746406295802e+02,6.758561244329612236e+02,7.203485976147421752e+02,5.619379001512752438e+02,5.542690739032659621e+02,1.258708870736678364e+03,6.180248542147564876e+02,9.484992027282714844e+00,-7.266727685928344727e-01,-1.147378087043762207e+00,3.300000000000000000e+02
5.073574665193373221e+02,4.534186518055139459e+02,5.889572309436625801e+02,6.913650628335271904e+02,4.911581260913990263e+02,4.398185301087105472e+02,1.407679952542399406e+03,5.027841939057252603e+02,9.484992027282714844e+00,-7.266727685928344727e-01,-1.147378087043762207e+00,3.310000000000000000e+02
5.080913790924096247e+02,5.233916289818334917e+02,5.647119143011077540e+02,6.331520475418583374e+02,4.648564951569642290e+02,4.634557090458438324e+02,1.377792690581976785e+03,5.235379820029083930e+02,9.484992027282714844e+00,-7.266727685928344727e-01,-1.147378087043762207e+00,3.320000000000000000e+02
3.870017719735405990e+02,6.766684681062361051e+02,6.297122255051399407e+02,6.230182243399358413e+02,5.117651914288217085e+02,5.891624174464923271e+02,1.194481516394836945e+03,6.462628199337268597e+02,9.484992027282714844e+00,-7.266727685928344727e-01,-1.147378087043762207e+00,3.330000000000000000e+02
3.128637134191376390e+02,6.982322490631086112e+02,6.863239377142672311e+02,6.719547223289737303e+02,5.598826349264272721e+02,6.404589606836889288e+02,1.096111254422357888e+03,6.971331365183541493e+02,9.484992027282714844e+00,-7.266727685928344727e-01,-1.147378087043762207e+00,3.340000000000000000e+02
3.889089156648697099e+02,5.545054661679896526e+02,6.480999553196597844e+02,7.088884078160699573e+02,5.362025382679057657e+02,5.444287604289238516e+02,1.203764734850512468e+03,6.021879037279504701e+02,9.484992027282714844e+00,-7.266727685928344727e-01,-1.147378087043762207e+00,3.350000000000000000e+02
5.107720236172608566e+02,4.389709995476514450e+02,5.605616590587342216e+02,6.789464144107587344e+02,4.667538890732248547e+02,4.315829589591266995e+02,1.353749969470256474e+03,4.881080770506050612e+02,9.484992027282714844e+00,-7.266727685928344727e-01,-1.147378087043762207e+00,3.360000000000000000e+02
5.117925617063010577e+02,5.047423373846286268e+02,5.392864242044488492e+02,6.188533427606489568e+02,4.406915128554683179e+02,4.542087667863088427e+02,1.323411692328299978e+03,5.067903238312828762e+02,9.484992027282714844e+00,-7.266727685928344727e-01,-1.147378087043762207e+00,3.370000000000000000e+02
3.932218940296734218e+02,6.538783032250612450e+02,6.102176772316015558e+02,6.048949390984162164e+02,4.883244307482491422e+02,5.755867362186290848e+02,1.140863460568667506e+03,6.260919395403543604e+02,9.484992027282714844e+00,-7.266727685928344727e-01,-1.147378087043762207e+00,3.380000000000000000e+02
3.218715795926109422e+02,6.725745907138189068e+02,6.728316262761072721e+02,6.475946055280364817e+02,5.395162867003709835e+02,6.215449212184612406e+02,1.044223984306969214e+03,6.741926502966744010e+02,9.484992027282714844e+00,-7.266727685928344727e-01,-1.147378087043762207e+00,3.390000000000000000e+02
3.994692908562865341e+02,5.259787169400005951e+02,6.382422752584971022e+02,6.794508007103941054e+02,5.198845116570155369e+02,5.222236238255318312e+02,1.153391603244599537e+03,5.769151696943154093e+02,9.484992027282714844e+00,-7.266727685928344727e-01,-1.147378087043762207e+00,3.400000000000000000e+02
5.225710377188515849e+02,4.069763113006556523e+02,5.521473793400582508e+02,6.496989105093089165e+02,4.535981967007719504e+02,4.083504035685036797e+02,1.304713052465493092e+03,4.610314398524424178e+02,9.484992027282714844e+00,-7.266727685928344727e-01,-1.147378087043762207e+00,3.410000000000000000e+02
5.258420052636720357e+02,4.712224231053260155e+02,5.320580103549546038e+02,5.931112216013279976e+02,4.305339352412192966e+02,4.293733368081993831e+02,1.277313022607093444e+03,4.798472916325881670e+02,9.484992027282714844e+00,-7.266727685928344727e-01,-1.147378087043762207e+00,3.420000000000000000e+02
4.104742431556223892e+02,6.226681561082332337e+02,6.050412735371282906e+02,5.802387203775579110e+02,4.816992935200978536e+02,5.467331381155890995e+02,1.097731497781191138e+03,6.010508445047598798e+02,9.484992027282714844e+00,-7.266727685928344727e-01,-1.109132170677185059e+00,3.430000000000000000e+02
3.424649943611148046e+02,6.455496936256386107e+02,6.705122716380828933e+02,6.201669694273950881e+02,5.354776691460974689e+02,5.882442643090325873e+02,1.002765707640151959e+03,6.509295664222518099e+02,9.484992027282714844e+00,-7.266727685928344727e-01,-1.109132170677185059e+00,3.440000000000000000e+02
4.225981902810308384e+02,5.018076952135379543e+02,6.394057235153013607e+02,6.488934561297355685e+02,5.168334688160466612e+02,4.873450540303783782e+02,1.112006019583030138e+03,5.552973786308866693e+02,9.484992027282714844e+00,-7.266727685928344727e-01,-1.109132170677185059e+00,3.450000000000000000e+02
5.461943047094027861e+02,3.831113574702285405e+02,5.561371104259378626e+02,6.180197120544107747e+02,4.515419834477579570e+02,3.756119054831979156e+02,1.262929472118368722e+03,4.426786878856546537e+02,9.484992027282714844e+00,-7.266727685928344727e-01,-1.109132170677185059e+00,3.460000000000000000e+02
5.474490486532449722e+02,4.461082946197275305e+02,5.353535018775983190e+02,5.620623003284854349e+02,4.296004062263491505e+02,4.010448232007693150e+02,1.235795880960795330e+03,4.656329793602453719e+02,9.484992027282714844e+00,-7.266727685928344727e-01,-1.109132170677185059e+00,3.470000000000000000e+02
4.291169727808373864e+02,5.974415372613802901e+02,6.031990654360815824e+02,5.516765595590841258e+02,4.793993394444987644e+02,5.234270425741342478e+02,1.057178967609448591e+03,5.885629070017675986e+02,9.484992027282714844e+00,-7.266727685928344727e-01,-1.109132170677185059e+00,3.480000000000000000e+02
3.593632570804693387e+02,6.239419417478566174e+02,6.622538429272208305e+02,5.959426476417793310e+02,5.285640597147576045e+02,5.691705988233516109e+02,9.633715726087539224e+02,6.370292777226968610e+02,9.484992027282714844e+00,-7.266727685928344727e-01,-1.109132170677185059e+00,3.490000000000000000e+02
4.392977167376520811e+02,4.863345744184953219e+02,6.266181677415515878e+02,6.285722341208893340e+02,5.051099501776770921e+02,4.704872608497244073e+02,1.073938430480033276e+03,5.398866565677308245e+02,9.484992027282714844e+00,-7.266727685928344727e-01,-1.109132170677185059e+00,3.500000000000000000e+02
5.631411591538344510e+02,3.714477412681007991e+02,5.404374124450696399e+02,5.989032804909220431e+02,4.371040793992287945e+02,3.586995200316923729e+02,1.226490854127594503e+03,4.274396476783113030e+02,9.484992027282714844e+00,-7.266727685928344727e-01,-1.109132170677185059e+00,3.510000000000000000e+02
5.645093781264149584e+02,4.336178058776567923e+02,5.174653786105445761e+02,5.425056976428313646e+02,4.133694912705032039e+02,3.826718891804666782e+02,1.201207647910050582e+03,4.503219849324814277e+02,9.484992027282714844e+00,-7.266727685928344727e-01,-1.109132170677185059e+00,3.520000000000000000e+02
4.460109458663864643e+02,5.827610851304380049e+02,5.845359056470479118e+02,5.328046264368022094e+02,4.611532904771738686e+02,5.033708274672972038e+02,1.024487784557495615e+03,5.714815101740205137e+02,9.484992027282714844e+00,-7.266727685928344727e-01,-1.109132170677185059e+00,3.530000000000000000e+02
3.752303642999104341e+02,6.095180438508978114e+02,6.438314009687092039e+02,5.798866586611111416e+02,5.092796308031247463e+02,5.483911893792792398e+02,9.325954477946943371e+02,6.185098555737204151e+02,9.484992027282714844e+00,-7.266727685928344727e-01,-1.109132170677185059e+00,3.540000000000000000e+02
4.530639170214126352e+02,4.743366218376031611e+02,6.074287598192895530e+02,6.163458518796469434e+02,4.863658956528815906e+02,4.509202099200847442e+02,1.044884422771909158e+03,5.223929900065268157e+02,9.484992027282714844e+00,-7.266727685928344727e-01,-1.109132170677185059e+00,3.550000000000000000e+02
5.744500884079243406e+02,3.619224115951146814e+02,5.192939741067093564e+02,5.898473675027489662e+02,4.188262831848696806e+02,3.423101730536873220e+02,1.198749134647601750e+03,4.123694138689170359e+02,9.484992027282714844e+00,-7.266727685928344727e-01,-1.109132170677185059e+00,3.560000000000000000e+02
5.734121301137347473e+02,4.257254326509792008e+02,4.946822027765083476e+02,5.350037729209070676e+02,3.945683824559382629e+02,3.707100729871890508e+02,1.174847624538757373e+03,4.373602545152716630e+02,9.484992027282714844e+00,-7.266727685928344727e-01,-1.109132170677185059e+00,3.570000000000000000e+02
4.521092704341572244e+02,5.749378698668588186e+02,5.601954464155714959e+02,5.259308599174983101e+02,4.422590120700842817e+02,4.966937898361284169e+02,1.000163114814407891e+03,5.609987028825780726e+02,9.484992027282714844e+00,-7.266727685928344727e-01,-1.109132170677185059e+00,3.580000000000000000e+02
3.778523533513362054e+02,5.992508157017837220e+02,6.171953586692106910e+02,5.744616368310016696e+02,4.917247555133290007e+02,5.473833353561640251e+02,9.102555036062112777e+02,6.117682347406444023e+02,9.484992027282714844e+00,-7.266727685928344727e-01,-1.109132170677185059e+00,3.590000000000000000e+02
4.516846721128531499e+02,4.606643171743853600e+02,5.794399808809466776e+02,6.137363845337677049e+02,4.704045765146729536e+02,4.544775750808330486e+02,1.023136599566525547e+03,5.189320091034896905e+02,9.484992027282714844e+00,-7.266727685928344727e-01,-1.109132170677185059e+00,3.600000000000000000e+02
5.688104030813410645e+02,3.475375814481012640e+02,4.926157642598627717e+02,5.903684178341936786e+02,4.034098108032339951e+02,3.481255258251912892e+02,1.176309433616144815e+03,4.096000555595710466e+02,9.484992027282714844e+00,-7.266727685928344727e-01,-1.109132170677185059e+00,3.610000000000000000e+02
5.643824881729524350e+02,4.140153268856374780e+02,4.705075755981742986e+02,5.384026825956098037e+02,3.789351264623401221e+02,3.771381809052181779e+02,1.150594946094628540e+03,4.333777250905768597e+02,9.484992027282714844e+00,-7.266727685928344727e-01,-1.109132170677185059e+00,3.620000000000000000e+02
4.424948040515300818e+02,5.659160795483512629e+02,5.381559285632538376e+02,5.318387671044692979e+02,4.265206900879202294e+02,5.031738066668185638e+02,9.749046381978841964e+02,5.561172458393230045e+02,9.484992027282714844e+00,-7.266727685928344727e-01,-1.109132170677185059e+00,3.630000000000000000e+02
3.706386943695833907e+02,5.909370248769409955e+02,5.985356594335025875e+02,5.807485843672548071e+02,4.765549949133855989e+02,5.529439033653907245e+02,8.843381078866368625e+02,6.071274644296281622e+02,9.446745872497558594e+00,-6.501809358596801758e-01,-1.109132170677185059e+00,3.640000000000000000e+02
4.480997922348615248e+02,4.525100780931425106e+02,5.670251235537871253e+02,6.162214048117239145e+02,4.572421397064390476e+02,4.572774536888464354e+02,9.968266003751341486e+02,5.150721247175315511e+02,9.446745872497558594e+00,-6.501809358596801758e-01,-1.109132170677185059e+00,3.650000000000000000e+02
5.692612240650923923e+02,3.387514720727122040e+02,4.877305042266452801e+02,5.860987332822041935e+02,3.944576785192184616e+02,3.467503068679216085e+02,1.150364763868230511e+03,4.063931701492401771e+02,9.446745872497558594e+00,-6.501809358596801758e-01,-1.109132170677185059e+00,3.660000000000000000e+02
5.698068177842214936e+02,4.005371905695974419e+02,4.719623099318487220e+02,5.276807663423169288e+02,3.758953044846421108e+02,3.714596070105690160e+02,1.126807723259917111e+03,4.302139216275754734e+02,9.446745872497558594e+00,-6.501809358596801758e-01,-1.109132170677185059e+00,3.670000000000000000e+02
4.527581118345406139e+02,5.440358837179737748e+02,5.437019910933158826e+02,5.160573852949892171e+02,4.291945281663574860e+02,4.942059779516348499e+02,9.531386844585213112e+02,5.521898885101109045e+02,9.446745872497558594e+00,-6.501809358596801758e-01,-1.109132170677185059e+00,3.680000000000000000e+02
3.835723121607588837e+02,5.629600649832864292e+02,6.051648310827222303e+02,5.609407379760159529e+02,4.828180017782287905e+02,5.424302903439602233e+02,8.642698503641149728e+02,6.020002169843355659e+02,9.446745872497558594e+00,-6.501809358596801758e-01,-1.109132170677185059e+00,3.690000000000000000e+02
4.619846272956201574e+02,4.245290319512714632e+02,5.713633998784061987e+02,5.948696331128230668e+02,4.641575671179089113e+02,4.465843851960380562e+02,9.783095311178476550e+02,5.087497365559538594e+02,9.446745872497558594e+00,-6.501809358596801758e-01,-1.109132170677185059e+00,3.700000000000000000e+02
5.848374106050032424e+02,3.142269910161703592e+02,4.883222229510647594e+02,5.669806915668013971e+02,3.994898873918136815e+02,3.355294040907538147e+02,1.133371182135218987e+03,3.990424679148854921e+02,9.446745872497558594e+00,-6.501809358596801758e-01,-1.109132170677185059e+00,3.710000000000000000e+02
5.884602191369922366e+02,3.799139228475469281e+02,4.704592648861362250e+02,5.120956430042569991e+02,3.776012294953688979e+02,3.580104506532079540e+02,1.111733485094533535e+03,4.222067113647935912e+02,9.446745872497558594e+00,-6.501809358596801758e-01,-1.109132170677185059e+00,3.720000000000000000e+02
4.745047604135179427e+02,5.277858946737396764e+02,5.430804505228661583e+02,5.016534102011573850e+02,4.273151631659566192e+02,4.770034992641230929e+02,9.410804064398107585e+02,5.436129497059082496e+02,9.446745872497558594e+00,-6.501809358596801758e-01,-1.109132170677185059e+00,3.730000000000000000e+02
4.078500511327438289e+02,5.502279315661362489e+02,6.078565683228734997e+02,5.450262375713209622e+02,4.783002905923422077e+02,5.206842295968017424e+02,8.561988098718429683e+02,5.917866574073705124e+02,9.446745872497558594e+00,-6.501809358596801758e-01,-1.109132170677185059e+00,3.740000000000000000e+02
4.885660274640104035e+02,4.116922227037284756e+02,5.784573043581985985e+02,5.764826109506102512e+02,4.591593906524067279e+02,4.206602655210808734e+02,9.738028942546370672e+02,4.957679381759226089e+02,9.446745872497558594e+00,-6.501809358596801758e-01,-1.109132170677185059e+00,3.750000000000000000e+02
6.132321834846516140e+02,2.994471280233774451e+02,4.980841912463074550e+02,5.460968487427599030e+02,3.961424886018212419e+02,3.082455582775073708e+02,1.130626474223245168e+03,3.843086073852755362e+02,9.446745872497558594e+00,-6.501809358596801758e-01,-1.109132170677185059e+00,3.760000000000000000e+02
6.179576892277109437e+02,3.660357626170007279e+02,4.779715242728780140e+02,4.898625209529272979e+02,3.756971505930996500e+02,3.338890213026315905e+02,1.108919122411345597e+03,4.080504160827767919e+02,9.446745872497558594e+00,-6.501809358596801758e-01,-1.109132170677185059e+00,3.770000000000000000e+02
5.049783517068863148e+02,5.171464732420427026e+02,5.439758606323448475e+02,4.809860910417628475e+02,4.240723216193073313e+02,4.586393832983449101e+02,9.373842321871052263e+02,5.307755490600975463e+02,9.446745872497558594e+00,-6.501809358596801758e-01,-1.109132170677185059e+00,3.780000000000000000e+02
4.389449555454048095e+02,5.407556964351751958e+02,6.022482034417553223e+02,5.283003016956208739e+02,4.712537344959418988e+02,5.074361029492283706e+02,8.515590907893492840e+02,5.797533597098372411e+02,9.446745872497558594e+00,-6.501809358596801758e-01,-1.109132170677185059e+00,3.790000000000000000e+02
5.187331116143031977e+02,4.013762644182861550e+02,5.693699550453384290e+02,5.633564393146953080e+02,4.481739827106866869e+02,4.113381709677269100e+02,9.681835525569331367e+02,4.851362938852107618e+02,9.446745872497558594e+00,-6.501809358596801758e-01,-1.109132170677185059e+00,3.800000000000000000e+02
6.407164069946302334e+02,2.900585463331080973e+02,4.873129663613945013e+02,5.353906450291979127e+02,3.821359898000155226e+02,3.018434664475644240e+02,1.124174614581686910e+03,3.754850622126687085e+02,9.446745872497558594e+00,-6.501809358596801758e-01,-1.109132170677185059e+00,3.810000000000000000e+02
6.423078482757991878e+02,3.598841410274617374e+02,4.656699831119331066e+02,4.818987922102969605e+02,3.595485332632379141e+02,3.272856422420154558e+02,1.102672389362531248e+03,3.985994744390482083e+02,9.446745872497558594e+00,-6.501809358596801758e-01,-1.109132170677185059e+00,3.820000000000000000e+02
5.254334335654275492e+02,5.147620771714500734e+02,5.305592588241415797e+02,4.767773229298618389e+02,4.077759416545159183e+02,4.485257739329535980e+02,9.304056982424808666e+02,5.180151765326663735e+02,9.446745872497558594e+00,-6.501809358596801758e-01,-1.109132170677185059e+00,3.830000000000000000e+02
4.555812190383439884e+02,5.425048180688681896e+02,5.876108785417673062e+02,5.284768966598421684e+02,4.570427912760715117e+02,4.954667282680529752e+02,8.439810757334053051e+02,5.648389737661345862e+02,9.446745872497558594e+00,-6.501809358596801758e-01,-1.109132170677185059e+00,3.840000000000000000e+02
5.309735663557949010e+02,4.075400728783279192e+02,5.520006173384026624e+02,5.692472262366354698e+02,4.358186802586860722e+02,4.033981856254831655e+02,9.586034905237465864e+02,4.713808007117622765e+02,9.446745872497558594e+00,-6.501809358596801758e-01,-1.109132170677185059e+00,3.850000000000000000e+02
6.477971459803811740e+02,2.988774908721825341e+02,4.663592628947517369e+02,5.480875296614394756e+02,3.690519139257521601e+02,3.008286322060303064e+02,1.111757198765655630e+03,3.637605827613879228e+02,9.446745872497558594e+00,-6.501809358596801758e-01,-1.109132170677185059e+00,3.860000000000000000e+02
6.438698330247716513e+02,3.694773068814392900e+02,4.429350174109058571e+02,4.994786070414193091e+02,3.447116240390314488e+02,3.314464871117161238e+02,1.088333817003032891e+03,3.880858637975034071e+02,9.446745872497558594e+00,-6.501809358596801758e-01,-1.109132170677185059e+00,3.870000000000000000e+02
5.233885267041914631e+02,5.252732637137087295e+02,5.090772294181879261e+02,4.949191291655661189e+02,3.930811202843033243e+02,4.566410834481939673e+02,9.174004031534132082e+02,5.096724558719288325e+02,9.446745872497558594e+00,-6.501809358596801758e-01,-1.109132170677185059e+00,3.880000000000000000e+02
4.516830235565721523e+02,5.533865031682580593e+02,5.699440692456992110e+02,5.444099632320649107e+02,4.449601191329711583e+02,5.082737823108909652e+02,8.315628986814990640e+02,5.607355189035588410e+02,9.446745872497558594e+00,-7.266727685928344727e-01,-1.070886254310607910e+00,3.890000000000000000e+02
5.270466732274362585e+02,4.146652471739871544e+02,5.398728998592996504e+02,5.824837276092293905e+02,4.276980356854328420e+02,4.192922027277891175e+02,9.457408480849408079e+02,4.716449045490953722e+02,9.446745872497558594e+00,-7.266727685928344727e-01,-1.070886254310607910e+00,3.900000000000000000e+02
6.449730170043767430e+02,2.976495318991292152e+02,4.600830952331161825e+02,5.580379529944329988e+02,3.660800778962002369e+02,3.163380427919692011e+02,1.098735104036983103e+03,3.672410677414227393e+02,9.446745872497558594e+00,-7.266727685928344727e-01,-1.070886254310607910e+00,3.910000000000000000e+02
6.426709579431044403e+02,3.581893362386908848e+02,4.408948996678445837e+02,5.047374711484590080e+02,3.473284846610113163e+02,3.454267845636277343e+02,1.075676476482796716e+03,3.939958865830412833e+02,9.446745872497558594e+00,-7.266727685928344727e-01,-1.070886254310607910e+00,3.920000000000000000e+02
5.238834110684256302e+02,5.045060182992892805e+02,5.095059268042459735e+02,4.947342205781533266e+02,3.993045221935535665e+02,4.688449829563614912e+02,9.045412766040535644e+02,5.161979941936879186e+02,9.446745872497558594e+00,-7.266727685928344727e-01,-1.070886254310607910e+00,3.930000000000000000e+02
