F3,F4,C3,C4,P3,P4,Cz,Pz,Accel_x,Accel_y,Accel_z,Sample
-5.911715561524033546e-12,-1.296029950026422739e-11,2.273736754432320595e-12,6.821210263296961784e-12,5.911715561524033546e-12,5.911715561524033546e-12,-6.093614501878619194e-11,2.296474121976643801e-11,9.484992027282714844e+00,-7.649186849594116211e-01,-1.109132170677185059e+00,1.000000000000000000e+00
-6.709523653355272472e+02,-4.947465219225462079e+02,-4.353399414033101493e+02,-3.320517674227426141e+02,-4.681536791917551454e+02,-4.312244268155500322e+02,-1.146687026937209339e+03,-3.542185134297251352e+02,9.484992027282714844e+00,-7.649186849594116211e-01,-1.109132170677185059e+00,2.000000000000000000e+00
-1.577296111370323160e+03,-8.667846427682397916e+02,-8.590458384668136205e+02,-5.733509206576236465e+02,-9.088962513384417434e+02,-9.493830005446955056e+02,-2.462102055792511237e+03,-8.073579423040298479e+02,9.484992027282714844e+00,-7.649186849594116211e-01,-1.109132170677185059e+00,3.000000000000000000e+00
-2.274418483052555985e+03,-1.175646997404184276e+03,-1.294009936517440337e+03,-7.819593947925318389e+02,-1.345864955632087685e+03,-1.523478945236190157e+03,-3.586791183517199443e+03,-1.327573673764964269e+03,9.484992027282714844e+00,-7.649186849594116211e-01,-1.109132170677185059e+00,4.000000000000000000e+00
-2.396921350754361811e+03,-1.472657929606542893e+03,-1.700619204896101110e+03,-1.043747273896985917e+03,-1.763545476313615382e+03,-1.985250173289143731e+03,-4.205290710632012633e+03,-1.740548873982786517e+03,9.484992027282714844e+00,-7.649186849594116211e-01,-1.109132170677185059e+00,5.000000000000000000e+00
-2.478679957523862413e+03,-1.659453204846081690e+03,-1.956833768964222600e+03,-1.296430827382538155e+03,-2.058245411192177926e+03,-2.196610515084656072e+03,-4.818788744178743400e+03,-1.910185717415335148e+03,9.484992027282714844e+00,-7.649186849594116211e-01,-1.109132170677185059e+00,6.000000000000000000e+00
-3.072515039926416648e+03,-1.743292789062740667e+03,-2.046720466643406326e+03,-1.420570703753189719e+03,-2.197650789784453082e+03,-2.262266057818833360e+03,-6.007885995855289366e+03,-1.943322735978164928e+03,9.484992027282714844e+00,-7.649186849594116211e-01,-1.109132170677185059e+00,7.000000000000000000e+00
-3.738961610013020163e+03,-1.953683480006840000e+03,-2.143565972087415048e+03,-1.443410422869655122e+03,-2.326148063499492309e+03,-2.444323328592640792e+03,-7.342968559363720487e+03,-2.093280036195119010e+03,9.484992027282714844e+00,-7.649186849594116211e-01,-1.109132170677185059e+00,8.000000000000000000e+00
-3.957996854641416576e+03,-2.358025765818276341e+03,-2.372460247428613457e+03,-1.501991637619939866e+03,-2.566413002134908311e+03,-2.802001023445224746e+03,-8.121611904849976781e+03,-2.414054708395311536e+03,9.484992027282714844e+00,-7.649186849594116211e-01,-1.109132170677185059e+00,9.000000000000000000e+00
-4.327276256067008944e+03,-2.641756589409675144e+03,-2.607107887724021566e+03,-1.629404794577879557e+03,-2.809523657712642944e+03,-3.077716062609899382e+03,-8.778762115545234337e+03,-2.661640447945023425e+03,9.484992027282714844e+00,-7.649186849594116211e-01,-1.109132170677185059e+00,1.000000000000000000e+01
-5.358269873581803040e+03,-2.588337734796908080e+03,-2.669915326852469661e+03,-1.729148622541692930e+03,-2.899456076006503281e+03,-3.084052127017995190e+03,-9.741831021288971897e+03,-2.653557609156974650e+03,9.484992027282714844e+00,-7.649186849594116211e-01,-1.109132170677185059e+00,1.100000000000000000e+01
-6.301211071697660373e+03,-2.476514836508436474e+03,-2.614882620972529821e+03,-1.740679106146047161e+03,-2.901273086976662853e+03,-3.007407237331978649e+03,-1.023164330832242558e+04,-2.553998629546972552e+03,9.484992027282714844e+00,-7.649186849594116211e-01,-1.109132170677185059e+00,1.200000000000000000e+01
-6.754180616472912334e+03,-2.641513393083494520e+03,-2.626018461654705334e+03,-1.702035786483583252e+03,-2.966462565219382668e+03,-3.115552517862193781e+03,-1.023649034048805333e+04,-2.623314017037079793e+03,9.484992027282714844e+00,-7.649186849594116211e-01,-1.109132170677185059e+00,1.300000000000000000e+01
-7.574751928808687808e+03,-2.945276565230497908e+03,-2.739711414209886698e+03,-1.676932853653644543e+03,-3.083968993341770783e+03,-3.356964354259017455e+03,-1.120597072898585975e+04,-2.837650202025271938e+03,9.484992027282714844e+00,-7.649186849594116211e-01,-1.109132170677185059e+00,1.400000000000000000e+01
-8.633271579953869150e+03,-3.056122967735088423e+03,-2.843738481958569537e+03,-1.707686869215569004e+03,-3.175885266535615756e+03,-3.495055275582252762e+03,-1.278332172904194158e+04,-2.966665210882197243e+03,9.484992027282714844e+00,-7.649186849594116211e-01,-1.109132170677185059e+00,1.500000000000000000e+01
-8.472925490542471380e+03,-2.958588002107984721e+03,-2.856893898456333773e+03,-1.775296993142495921e+03,-3.241717411031675056e+03,-3.463567339349270242e+03,-1.286334868038360764e+04,-2.912749118923794867e+03,9.484992027282714844e+00,-7.649186849594116211e-01,-1.109132170677185059e+00,1.600000000000000000e+01
-7.614784646108910238e+03,-2.856272348318125751e+03,-2.783102144714043789e+03,-1.770826199861577379e+03,-3.250043329216267921e+03,-3.375045790211484928e+03,-1.240659425527400890e+04,-2.790429049502603903e+03,9.484992027282714844e+00,-7.649186849594116211e-01,-1.109132170677185059e+00,1.700000000000000000e+01
-8.261959920215816965e+03,-2.868162576609133339e+03,-2.698496854343750783e+03,-1.640769817451073550e+03,-3.169233004501057167e+03,-3.355877609615625261e+03,-1.413608509795981990e+04,-2.762138124751621035e+03,9.484992027282714844e+00,-7.649186849594116211e-01,-1.109132170677185059e+00,1.800000000000000000e+01
-9.727368499420983426e+03,-3.030742902751213478e+03,-2.729232897881197459e+03,-1.541298020204070554e+03,-3.168199226006537629e+03,-3.491383505741262070e+03,-1.595756246475440457e+04,-2.894470389304974560e+03,9.484992027282714844e+00,-7.649186849594116211e-01,-1.109132170677185059e+00,1.900000000000000000e+01
-9.442931884848258051e+03,-3.241330557514188058e+03,-2.870619277300390422e+03,-1.615711738284240482e+03,-3.367468012383411860e+03,-3.697689048744202864e+03,-1.440887935815916171e+04,-3.059389359564363076e+03,9.484992027282714844e+00,-7.649186849594116211e-01,-1.109132170677185059e+00,2.000000000000000000e+01
-8.795967471178297274e+03,-3.172714655210593719e+03,-2.879799946433743571e+03,-1.685882692518239082e+03,-3.449098424551553762e+03,-3.670018995461981831e+03,-1.366148801384641229e+04,-2.999181124268321128e+03,9.484992027282714844e+00,-7.649186849594116211e-01,-1.109132170677185059e+00,2.100000000000000000e+01
-1.078144953237669324e+04,-2.772505477373290887e+03,-2.637882877107333570e+03,-1.525249370148330172e+03,-3.147289863803298431e+03,-3.342032180561406676e+03,-1.866541989981554798e+04,-2.708051376056761910e+03,9.484992027282714844e+00,-7.649186849594116211e-01,-1.109132170677185059e+00,2.200000000000000000e+01
-1.189755701909826894e+04,-2.720151259534881319e+03,-2.507227810680798029e+03,-1.363068417847214732e+03,-2.998381568491969119e+03,-3.264442799867485064e+03,-2.109381800680894594e+04,-2.630898406640854773e+03,9.484992027282714844e+00,-7.649186849594116211e-01,-1.109132170677185059e+00,2.300000000000000000e+01
-5.518166383647502698e+03,-3.618324236955103970e+03,-2.893871220950270072e+03,-1.630904828770515905e+03,-3.728735381878741464e+03,-3.941557451095982742e+03,-8.485897860867986310e+03,-3.113532700052710425e+03,9.484992027282714844e+00,-7.649186849594116211e-01,-1.109132170677185059e+00,2.400000000000000000e+01
6.134127374319602495e+03,-4.887633459197389129e+03,-3.550356006735712072e+03,-2.230104459504358601e+03,-4.980368861532619121e+03,-4.932169356072042319e+03,1.344669813132917989e+04,-3.791886896524586518e+03,9.446745872497558594e+00,-7.266727685928344727e-01,-1.109132170677185059e+00,2.500000000000000000e+01
1.321611896703439925e+04,-5.406768027083648121e+03,-3.840350124359640176e+03,-2.588473993718711426e+03,-5.646616339228813558e+03,-5.338987007744535731e+03,2.563760114417564182e+04,-4.016845575193534842e+03,9.446745872497558594e+00,-7.266727685928344727e-01,-1.109132170677185059e+00,2.600000000000000000e+01
1.233530004352565811e+04,-5.110251865781629022e+03,-3.643530682644010085e+03,-2.475292568844818561e+03,-5.449773074164995705e+03,-5.083248963544623621e+03,2.290409522279831435e+04,-3.774178521125383668e+03,9.446745872497558594e+00,-7.266727685928344727e-01,-1.109132170677185059e+00,2.700000000000000000e+01
9.778461379430666057e+03,-4.916000589736688198e+03,-3.439599696716014478e+03,-2.239381793459565870e+03,-5.162414568665288243e+03,-4.891084080078167972e+03,1.803327992911286492e+04,-3.621501421575761015e+03,9.446745872497558594e+00,-7.266727685928344727e-01,-1.109132170677185059e+00,2.800000000000000000e+01
1.010959717985124189e+04,-5.186378652682997199e+03,-3.509800586690642376e+03,-2.191912428062937579e+03,-5.268699382530409821e+03,-5.087244279413692311e+03,1.894666736703036440e+04,-3.782656330202962636e+03,9.446745872497558594e+00,-7.266727685928344727e-01,-1.109132170677185059e+00,2.900000000000000000e+01
1.100315441338998426e+04,-5.357252295430673257e+03,-3.614953294366811861e+03,-2.241897896695288182e+03,-5.425873315796717179e+03,-5.245492016826861800e+03,2.018787505534628508e+04,-3.905022324327743718e+03,9.446745872497558594e+00,-7.266727685928344727e-01,-1.109132170677185059e+00,3.000000000000000000e+01
1.027561237015725055e+04,-5.098805593265863536e+03,-3.516149680868603809e+03,-2.212913033230234760e+03,-5.318712540331534910e+03,-5.064876080937105144e+03,1.776043091615103913e+04,-3.737658097920557339e+03,9.446745872497558594e+00,-7.266727685928344727e-01,-1.109132170677185059e+00,3.100000000000000000e+01
9.613872690468992005e+03,-4.821011932220137169e+03,-3.328623154953503672e+03,-2.112066616838988011e+03,-5.144680664753530436e+03,-4.823823988468913740e+03,1.563958216298581101e+04,-3.502905393745491892e+03,9.446745872497558594e+00,-7.266727685928344727e-01,-1.109132170677185059e+00,3.200000000000000000e+01
1.011938875640885453e+04,-4.884103752279203945e+03,-3.252284316108931307e+03,-2.008889198949696947e+03,-5.119004575831088005e+03,-4.828122174193047613e+03,1.590597209765084335e+04,-3.478141199514858272e+03,9.446745872497558594e+00,-7.266727685928344727e-01,-1.109132170677185059e+00,3.300000000000000000e+01
1.046940481634166645e+04,-5.084699288453955887e+03,-3.287671772707520176e+03,-1.930400871978794612e+03,-5.159381526737010063e+03,-4.974299720206541679e+03,1.553592178485191471e+04,-3.603706835230842444e+03,9.446745872497558594e+00,-7.266727685928344727e-01,-1.109132170677185059e+00,3.400000000000000000e+01
1.012077537251880130e+04,-5.090976912128305230e+03,-3.310212840931886603e+03,-1.900635630576577341e+03,-5.151267374704928443e+03,-5.007656783192369403e+03,1.373640878623426761e+04,-3.641899210422680881e+03,9.446745872497558594e+00,-7.266727685928344727e-01,-1.109132170677185059e+00,3.500000000000000000e+01
9.965730422239179461e+03,-4.891782769786236713e+03,-3.236048403698296170e+03,-1.902799588218359531e+03,-5.095660071557728770e+03,-4.867285502149834429e+03,1.272637976731927665e+04,-3.500651397221526622e+03,9.446745872497558594e+00,-7.266727685928344727e-01,-1.109132170677185059e+00,3.600000000000000000e+01
1.010741125761166040e+04,-4.704453857266275008e+03,-3.086831892224651256e+03,-1.849710779089130938e+03,-5.003782692919294277e+03,-4.690483802385737363e+03,1.228675009042078636e+04,-3.308056108901311291e+03,9.446745872497558594e+00,-7.266727685928344727e-01,-1.109132170677185059e+00,3.700000000000000000e+01
9.999754200820758342e+03,-4.699433130433380029e+03,-2.975926639638099914e+03,-1.718183668336916071e+03,-4.910598515484508425e+03,-4.642650286367641456e+03,1.088861659632790179e+04,-3.249102777032867380e+03,9.446745872497558594e+00,-7.266727685928344727e-01,-1.109132170677185059e+00,3.800000000000000000e+01
9.871550655402839766e+03,-4.834006474186180640e+03,-2.986700404182405691e+03,-1.616034538590761258e+03,-4.895843113391321822e+03,-4.741185119625790321e+03,9.595386009130152161e+03,-3.345547411459515388e+03,9.446745872497558594e+00,-7.266727685928344727e-01,-1.109132170677185059e+00,3.900000000000000000e+01
1.004821958230653036e+04,-4.878662028419047601e+03,-3.039470705899633685e+03,-1.615198739353717428e+03,-4.938502685487205781e+03,-4.806410152749229383e+03,9.362945796795698698e+03,-3.409712945188784488e+03,9.446745872497558594e+00,-7.266727685928344727e-01,-1.109132170677185059e+00,4.000000000000000000e+01
1.009412464958793680e+04,-4.694954487439179502e+03,-2.981095187754766357e+03,-1.630829260548784532e+03,-4.904079753322146644e+03,-4.678113477602935745e+03,8.441493260347600881e+03,-3.282590093556833381e+03,9.446745872497558594e+00,-7.266727685928344727e-01,-1.109132170677185059e+00,4.100000000000000000e+01
9.783698122013236571e+03,-4.462423626080938448e+03,-2.813157231974729712e+03,-1.556007782094418417e+03,-4.764145057270244251e+03,-4.461503477765433672e+03,6.387249599297937493e+03,-3.068646537825913583e+03,9.446745872497558594e+00,-7.266727685928344727e-01,-1.109132170677185059e+00,4.200000000000000000e+01
9.621226974661034546e+03,-4.451361703636047423e+03,-2.698284709702329565e+03,-1.421128672555256344e+03,-4.655975130917193383e+03,-4.398474404661516928e+03,5.470448862006178388e+03,-3.001011352263223671e+03,9.446745872497558594e+00,-7.266727685928344727e-01,-1.109132170677185059e+00,4.300000000000000000e+01
9.810949129865217401e+03,-4.619520568581163388e+03,-2.719616941517840132e+03,-1.337762958149926817e+03,-4.664536332188303277e+03,-4.513815449126030217e+03,5.577293296695357640e+03,-3.105852273902783054e+03,9.446745872497558594e+00,-7.266727685928344727e-01,-1.109132170677185059e+00,4.400000000000000000e+01
9.906336166388695347e+03,-4.662290577475854661e+03,-2.763103916511379794e+03,-1.340129647430541809e+03,-4.699080901163390081e+03,-4.575943043672853491e+03,4.058209589044041422e+03,-3.163466366038258457e+03,9.446745872497558594e+00,-7.266727685928344727e-01,-1.109132170677185059e+00,4.500000000000000000e+01
9.707068430806919423e+03,-4.453137780891266630e+03,-2.687456489554707332e+03,-1.348124490993811378e+03,-4.640176343512323001e+03,-4.431442612555318192e+03,1.828305401156213065e+03,-3.022212235186892030e+03,9.446745872497558594e+00,-7.266727685928344727e-01,-1.109132170677185059e+00,4.600000000000000000e+01
9.519656518173072982e+03,-4.216714318049136637e+03,-2.519960305728099684e+03,-1.278119855172558118e+03,-4.504179504880898094e+03,-4.216505030508776144e+03,1.884897873732251355e+03,-2.808197232803182487e+03,9.446745872497558594e+00,-7.266727685928344727e-01,-1.109132170677185059e+00,4.700000000000000000e+01
9.493035851165299391e+03,-4.206229104755996559e+03,-2.411828442358747452e+03,-1.151545472985439801e+03,-4.407223467200280538e+03,-4.159746176318510152e+03,1.928853367300733680e+03,-2.745489495281400650e+03,9.446745872497558594e+00,-7.266727685928344727e-01,-1.109132170677185059e+00,4.800000000000000000e+01
9.473499287360609742e+03,-4.360012792750975677e+03,-2.430722875229582314e+03,-1.065925936906001880e+03,-4.407706795640724522e+03,-4.268961990272353432e+03,-1.755938936211839064e+03,-2.848184575196850346e+03,9.446745872497558594e+00,-7.266727685928344727e-01,-1.109132170677185059e+00,4.900000000000000000e+01
9.479021595613874524e+03,-4.395648877363200882e+03,-2.471274069267135019e+03,-1.063432736138860037e+03,-4.432023809518883354e+03,-4.325276730991516160e+03,-3.903635256991557981e+03,-2.903655957166984535e+03,9.446745872497558594e+00,-7.266727685928344727e-01,-1.109132170677185059e+00,5.000000000000000000e+01
9.707061691916014752e+03,-4.195899146340187144e+03,-2.399229156546198283e+03,-1.072035313442158667e+03,-4.372914038366091518e+03,-4.183354220528854057e+03,4.196792681083456046e+03,-2.764769350342910911e+03,9.446745872497558594e+00,-7.266727685928344727e-01,-1.109132170677185059e+00,5.100000000000000000e+01
1.009010427432296274e+04,-3.965684347864854317e+03,-2.234563510253228742e+03,-1.004183917713951587e+03,-4.235073581775497587e+03,-3.969846850617374457e+03,1.894069764587187456e+04,-2.552242897110860213e+03,9.408499717712402344e+00,-7.266727685928344727e-01,-1.032640218734741211e+00,5.200000000000000000e+01
1.033270071398247273e+04,-3.950495652714241260e+03,-2.124827111114083436e+03,-8.789075626720286891e+02,-4.132268276316559422e+03,-3.909545797692670476e+03,2.716324445735138579e+04,-2.489024966546734959e+03,9.408499717712402344e+00,-7.266727685928344727e-01,-1.032640218734741211e+00,5.300000000000000000e+01
1.037225808496728496e+04,-4.098533379903325113e+03,-2.143226514371881422e+03,-7.961528982410238768e+02,-4.133049369831962395e+03,-4.016027298419326598e+03,2.501057976193678769e+04,-2.592846559953097767e+03,9.408499717712402344e+00,-7.266727685928344727e-01,-1.032640218734741211e+00,5.400000000000000000e+01
1.033626804306069789e+04,-4.128454829380190859e+03,-2.186515532876205725e+03,-7.963620115861372142e+02,-4.162039860358770966e+03,-4.070637660450688145e+03,2.115980210421646552e+04,-2.650332653585317530e+03,9.408499717712402344e+00,-7.266727685928344727e-01,-1.032640218734741211e+00,5.500000000000000000e+01
1.025391838408181502e+04,-3.924016227712250839e+03,-2.119735318688389725e+03,-8.064943867509050506e+02,-4.107505276395932015e+03,-3.927807828806760881e+03,2.134907888064228609e+04,-2.514498097665308705e+03,9.408499717712402344e+00,-7.266727685928344727e-01,-1.032640218734741211e+00,5.600000000000000000e+01
1.007775808590168890e+04,-3.696063714928209265e+03,-1.961681398780180643e+03,-7.410286515889526981e+02,-3.974655611420805144e+03,-3.715143958836531056e+03,2.202301337393917856e+04,-2.306880120579962750e+03,9.408499717712402344e+00,-7.266727685928344727e-01,-1.032640218734741211e+00,5.700000000000000000e+01
9.935514441298328165e+03,-3.688301569017350630e+03,-1.856721812013602175e+03,-6.197912440264888119e+02,-3.875412576092610834e+03,-3.655268936844034670e+03,2.024857414859799610e+04,-2.246994758075237769e+03,9.408499717712402344e+00,-7.266727685928344727e-01,-1.032640218734741211e+00,5.800000000000000000e+01
9.980744190978730330e+03,-3.838727891580600954e+03,-1.874299329300984482e+03,-5.408673881745485232e+02,-3.872318643554889150e+03,-3.758466893518997495e+03,1.847223697543054732e+04,-2.348194050563988640e+03,9.408499717712402344e+00,-7.266727685928344727e-01,-1.032640218734741211e+00,5.900000000000000000e+01
1.007039589411892666e+04,-3.866849378353597785e+03,-1.914042087587282822e+03,-5.455445297770509114e+02,-3.893386973523764482e+03,-3.809546279888110803e+03,1.817942661680898163e+04,-2.400433330858157660e+03,9.408499717712402344e+00,-7.266727685928344727e-01,-1.032640218734741211e+00,6.000000000000000000e+01
9.954464430479070870e+03,-3.661188819382941347e+03,-1.845624705492220983e+03,-5.613490709092332054e+02,-3.833051078195464470e+03,-3.664647844609424737e+03,1.758124610144503822e+04,-2.260979744286229561e+03,9.408499717712402344e+00,-7.266727685928344727e-01,-1.032640218734741211e+00,6.100000000000000000e+01
9.696547975600733480e+03,-3.430804927004932779e+03,-1.688639011089117957e+03,-5.024650912611955391e+02,-3.698119275441413720e+03,-3.449368249848938831e+03,1.617618200748849813e+04,-2.051193130933215798e+03,9.408499717712402344e+00,-7.266727685928344727e-01,-1.032640218734741211e+00,6.200000000000000000e+01
9.579545423087132804e+03,-3.416787088517499342e+03,-1.585417637923910661e+03,-3.888579620251716733e+02,-3.598136207939620817e+03,-3.386027262281065759e+03,1.530491140091940724e+04,-1.989244380407502376e+03,9.408499717712402344e+00,-7.266727685928344727e-01,-1.032640218734741211e+00,6.300000000000000000e+01
9.661989360692825358e+03,-3.562985042512307700e+03,-1.605372491740897203e+03,-3.180980879233411542e+02,-3.594288733829230296e+03,-3.487226804311055275e+03,1.474713221303823229e+04,-2.089831583127500380e+03,9.408499717712402344e+00,-7.266727685928344727e-01,-1.032640218734741211e+00,6.400000000000000000e+01
9.711941843833759776e+03,-3.594931768508510686e+03,-1.649814414415289320e+03,-3.289581097908398988e+02,-3.615142497422627912e+03,-3.538649329567825134e+03,1.344833551197641100e+04,-2.144781071056462679e+03,9.408499717712402344e+00,-7.266727685928344727e-01,-1.032640218734741211e+00,6.500000000000000000e+01
9.562787337802350521e+03,-3.395705016148742743e+03,-1.587607135948144787e+03,-3.474870891764157932e+02,-3.555232919553312058e+03,-3.396123821458619659e+03,1.214431149917237053e+04,-2.010900118277016190e+03,9.408499717712402344e+00,-7.266727685928344727e-01,-1.032640218734741211e+00,6.600000000000000000e+01
9.325408876650435559e+03,-3.164946386185847587e+03,-1.435400970305289775e+03,-2.901794860165350656e+02,-3.420926151413682419e+03,-3.185840569519124983e+03,1.170759357505698608e+04,-1.807494744776932748e+03,9.408499717712402344e+00,-7.266727685928344727e-01,-1.032640218734741211e+00,6.700000000000000000e+01
9.213205304289414926e+03,-3.143878963146429214e+03,-1.334489324683461746e+03,-1.795591228456096360e+02,-3.322447348725177562e+03,-3.128760859638172860e+03,1.105606641230547029e+04,-1.750584312760878220e+03,9.408499717712402344e+00,-7.266727685928344727e-01,-1.032640218734741211e+00,6.800000000000000000e+01
9.264523908825725812e+03,-3.282854426638525638e+03,-1.355595996653991733e+03,-1.120754125549833589e+02,-3.322290504435014554e+03,-3.233061909603876757e+03,9.508139672351251647e+03,-1.853693923416115013e+03,9.408499717712402344e+00,-7.266727685928344727e-01,-1.032640218734741211e+00,6.900000000000000000e+01
9.301349796477516065e+03,-3.309685297636046926e+03,-1.401460353993963963e+03,-1.244242389329683647e+02,-3.348804111653905238e+03,-3.283207814151279308e+03,8.512184466013026395e+03,-1.909786347182232021e+03,9.408499717712402344e+00,-7.266727685928344727e-01,-1.032640218734741211e+00,7.000000000000000000e+01
9.161233494810991033e+03,-3.106550932690611262e+03,-1.342144772654691224e+03,-1.431279946421368550e+02,-3.294615442881723993e+03,-3.139535565109920299e+03,8.687452290678211284e+03,-1.778045143697225740e+03,9.408499717712402344e+00,-7.266727685928344727e-01,-1.032640218734741211e+00,7.100000000000000000e+01
8.917762121687934268e+03,-2.874622412125427218e+03,-1.194788010794556612e+03,-8.549272958549772738e+01,-3.164408125746590486e+03,-2.930485427797440934e+03,8.301425753769362927e+03,-1.577725114965404828e+03,9.408499717712402344e+00,-7.266727685928344727e-01,-1.032640218734741211e+00,7.200000000000000000e+01
8.789923451696431584e+03,-2.855758056910995947e+03,-1.098824069986989798e+03,2.692033302816525975e+01,-3.067767801486337703e+03,-2.872693673435964683e+03,6.711686133189859902e+03,-1.522186099336836378e+03,9.408499717712402344e+00,-7.266727685928344727e-01,-1.032640218734741211e+00,7.300000000000000000e+01
8.840296656613241794e+03,-2.996469362453236045e+03,-1.122549839909564525e+03,9.751322202410437967e+01,-3.066879018265562991e+03,-2.971837773909254338e+03,5.663864056360382165e+03,-1.624210753490415755e+03,9.408499717712402344e+00,-7.266727685928344727e-01,-1.032640218734741211e+00,7.400000000000000000e+01
8.882316804777921789e+03,-3.022594318903461044e+03,-1.169161705995702505e+03,8.673022827252680145e+01,-3.090268091741549597e+03,-3.017811598120978488e+03,5.543586821211769347e+03,-1.679462037548465560e+03,9.408499717712402344e+00,-7.266727685928344727e-01,-1.032640218734741211e+00,7.500000000000000000e+01
8.739983400984019681e+03,-2.820713422749179244e+03,-1.110357969023519217e+03,6.584082953331744648e+01,-3.032149281677228828e+03,-2.876255759948615378e+03,4.692906931393561536e+03,-1.549118606588863258e+03,9.408499717712402344e+00,-7.266727685928344727e-01,-1.032640218734741211e+00,7.600000000000000000e+01
8.495294861800452054e+03,-2.595043013453893309e+03,-9.627528232092067810e+02,1.181627945143250145e+02,-2.899285487006819949e+03,-2.672164882985468466e+03,3.476067686252878048e+03,-1.351151885770829722e+03,9.408499717712402344e+00,-7.266727685928344727e-01,-1.032640218734741211e+00,7.700000000000000000e+01
8.372888555622485001e+03,-2.582990701645228000e+03,-8.654344742049333945e+02,2.237508043395628192e+02,-2.801641937034431066e+03,-2.615376110381095259e+03,3.576827014544702251e+03,-1.296842219877423759e+03,9.408499717712402344e+00,-7.266727685928344727e-01,-1.032640218734741211e+00,7.800000000000000000e+01
8.426130017459687224e+03,-2.726717747418125327e+03,-8.889608110352692165e+02,2.874228053585138696e+02,-2.800227586414783218e+03,-2.711492743586873985e+03,3.196836520168259085e+03,-1.398617796335550338e+03,9.408499717712402344e+00,-7.266727685928344727e-01,-1.032640218734741211e+00,7.900000000000000000e+01
8.464355442001651681e+03,-2.755183332367259936e+03,-9.375575463979216693e+02,2.711206374593821238e+02,-2.823302783221297432e+03,-2.755935933006786854e+03,8.057948248964203231e+01,-1.453241926036110726e+03,9.408499717712402344e+00,-7.266727685928344727e-01,-1.032640218734741211e+00,8.000000000000000000e+01
8.318856708040866579e+03,-2.558859647724817478e+03,-8.806315413144429840e+02,2.465167520042537035e+02,-2.766194663953778218e+03,-2.616720403175389947e+03,-1.166085597832905478e+03,-1.323385712485667227e+03,9.408499717712402344e+00,-7.266727685928344727e-01,-1.032640218734741211e+00,8.100000000000000000e+01
8.073774022312288253e+03,-2.338710964365895506e+03,-7.338297835028115514e+02,2.954464526079136704e+02,-2.635666246839754876e+03,-2.416186315442788782e+03,5.967776785303867655e+03,-1.127585523850946174e+03,9.408499717712402344e+00,-7.266727685928344727e-01,-1.032640218734741211e+00,8.200000000000000000e+01
7.950179733000338274e+03,-2.327251653622531194e+03,-6.381460915553143423e+02,3.968107612659550796e+02,-2.539833092292449692e+03,-2.362481571649153011e+03,1.798794824539636102e+04,-1.075797273568129185e+03,9.484992027282714844e+00,-6.501809358596801758e-01,-1.109132170677185059e+00,8.300000000000000000e+01
8.001133503402769747e+03,-2.468560327706983571e+03,-6.643454661084483632e+02,4.560982751559995449e+02,-2.538943808547167464e+03,-2.462491177997990690e+03,2.436352232951237602e+04,-1.179195549916147684e+03,9.484992027282714844e+00,-6.501809358596801758e-01,-1.109132170677185059e+00,8.400000000000000000e+01
8.040144222700838327e+03,-2.497253443071691891e+03,-7.151524895852380723e+02,4.358696530718316353e+02,-2.563112978635860600e+03,-2.511037320975234707e+03,2.252204764404905654e+04,-1.235819588733435467e+03,9.484992027282714844e+00,-6.501809358596801758e-01,-1.109132170677185059e+00,8.500000000000000000e+01
7.899148202513651995e+03,-2.305686638691788630e+03,-6.612360523354864199e+02,4.069875709233201633e+02,-2.508867658195954391e+03,-2.372477444192798430e+03,1.979700945972781483e+04,-1.109671848126181430e+03,9.484992027282714844e+00,-6.501809358596801758e-01,-1.109132170677185059e+00,8.600000000000000000e+01
7.659382869221642977e+03,-2.092980356996130922e+03,-5.200839415578411717e+02,4.506097690313608837e+02,-2.380787364211451404e+03,-2.168312305814983119e+03,2.052880484298516967e+04,-9.170795879261020218e+02,9.484992027282714844e+00,-6.501809358596801758e-01,-1.109132170677185059e+00,8.700000000000000000e+01
7.538408640788194134e+03,-2.089624568600148450e+03,-4.301968708384870297e+02,5.465797439462994589e+02,-2.284649545239572490e+03,-2.110579088605197285e+03,2.133697220080628904e+04,-8.653977473085828933e+02,9.484992027282714844e+00,-6.501809358596801758e-01,-1.109132170677185059e+00,8.800000000000000000e+01
7.589595615109417849e+03,-2.237369720492922625e+03,-4.595791962736993810e+02,6.024234749724064386e+02,-2.282577322337660007e+03,-2.208851979894614033e+03,1.966776364068553085e+04,-9.679311977984734767e+02,9.484992027282714844e+00,-6.501809358596801758e-01,-1.109132170677185059e+00,8.900000000000000000e+01
7.628300990230959542e+03,-2.268194047031459831e+03,-5.136219522235460317e+02,5.822510073066941914e+02,-2.308718730440501531e+03,-2.257324078055713926e+03,1.797612169292709950e+04,-1.026789555112372454e+03,9.484992027282714844e+00,-6.501809358596801758e-01,-1.109132170677185059e+00,9.000000000000000000e+01
7.486862649616198723e+03,-2.074178370013878521e+03,-4.661717124722708832e+02,5.562152867264740053e+02,-2.260403445216810724e+03,-2.121396788571534216e+03,1.815014808155129140e+04,-9.060042079636859853e+02,9.484992027282714844e+00,-6.501809358596801758e-01,-1.109132170677185059e+00,9.100000000000000000e+01
7.246769323616768816e+03,-1.856668038744631758e+03,-3.322839844551203896e+02,6.023666459161422608e+02,-2.139528903027028718e+03,-1.924985008257119262e+03,1.851032383443639264e+04,-7.192826796158219622e+02,9.484992027282714844e+00,-6.501809358596801758e-01,-1.109132170677185059e+00,9.200000000000000000e+01
7.126740322206938799e+03,-1.848390125049421385e+03,-2.467919519661600134e+02,6.979417299365750296e+02,-2.049587132083799133e+03,-1.877349593908451425e+03,1.757643656123241817e+04,-6.734561185681877760e+02,9.484992027282714844e+00,-6.501809358596801758e-01,-1.109132170677185059e+00,9.300000000000000000e+01
7.180975631412410621e+03,-1.993562316404537796e+03,-2.779692136691865016e+02,7.506854917512127940e+02,-2.051675285873539906e+03,-1.982087812871719507e+03,1.631271867108911465e+04,-7.823428508530669205e+02,9.484992027282714844e+00,-6.501809358596801758e-01,-1.109132170677185059e+00,9.400000000000000000e+01
7.224997144414114700e+03,-2.027193136899750243e+03,-3.321905978207068983e+02,7.259271611850690533e+02,-2.078638168117672649e+03,-2.033587453858669505e+03,1.580800343666195295e+04,-8.468187652477668053e+02,9.484992027282714844e+00,-6.501809358596801758e-01,-1.109132170677185059e+00,9.500000000000000000e+01
7.090656224460508383e+03,-1.840750656829829495e+03,-2.829007413878998705e+02,6.940178800628336830e+02,-2.027695462992752709e+03,-1.902485958036750162e+03,1.560166628266323642e+04,-7.299395307844715717e+02,9.484992027282714844e+00,-6.501809358596801758e-01,-1.109132170677185059e+00,9.600000000000000000e+01
6.857126863369505372e+03,-1.629453780827003357e+03,-1.470267230806011867e+02,7.339846180018685118e+02,-1.903929836729434101e+03,-1.713033216532714505e+03,1.500594080180197307e+04,-5.463477219076876281e+02,9.484992027282714844e+00,-6.501809358596801758e-01,-1.109132170677185059e+00,9.700000000000000000e+01
6.739913417120416852e+03,-1.621312251919966457e+03,-6.271075177028251346e+01,8.257855823004701961e+02,-1.814605003540700636e+03,-1.670286133225744379e+03,1.435975407642488608e+04,-5.031107512487483291e+02,9.484992027282714844e+00,-6.501809358596801758e-01,-1.109132170677185059e+00,9.800000000000000000e+01
6.792802335535521706e+03,-1.763379203438529203e+03,-9.756008323666628712e+01,8.781331549021188039e+02,-1.821013295907790507e+03,-1.777744599629217646e+03,1.403654899525324254e+04,-6.129950520361317103e+02,9.484992027282714844e+00,-6.501809358596801758e-01,-1.109132170677185059e+00,9.900000000000000000e+01
6.834503415422767830e+03,-1.796306145609143641e+03,-1.550084568701704484e+02,8.536322781863991622e+02,-1.853388852084919108e+03,-1.832625056360900089e+03,1.330557357376591244e+04,-6.774563861496931167e+02,9.484992027282714844e+00,-6.501809358596801758e-01,-1.109132170677185059e+00,1.000000000000000000e+02
6.699920190303966592e+03,-1.612533559011293164e+03,-1.091734284894264420e+02,8.198572626146005859e+02,-1.806992489061689412e+03,-1.703925174324777799e+03,1.179347671337076463e+04,-5.610867162859544806e+02,9.484992027282714844e+00,-6.501809358596801758e-01,-1.109132170677185059e+00,1.010000000000000000e+02
6.468297088244549741e+03,-1.404842493383230703e+03,2.108104130161154899e+01,8.560213342596853181e+02,-1.686042486779891988e+03,-1.512377425665714327e+03,1.140457538530639249e+04,-3.775638860623535038e+02,9.484992027282714844e+00,-6.501809358596801758e-01,-1.109132170677185059e+00,1.020000000000000000e+02
6.353215987702427810e+03,-1.400582362427739099e+03,1.001824420047760213e+02,9.432960284151058659e+02,-1.596690277745026833e+03,-1.464503394306093469e+03,1.416784694675893297e+04,-3.319711593447700579e+02,9.484992027282714844e+00,-6.501809358596801758e-01,-1.109132170677185059e+00,1.030000000000000000e+02
6.407034710066063781e+03,-1.547450279436665369e+03,6.436336941440094961e+01,9.905534001615878879e+02,-1.599827899885312945e+03,-1.567403351890740396e+03,1.846343895717454870e+04,-4.381863274199877196e+02,9.484992027282714844e+00,-7.649186849594116211e-01,-1.070886254310607910e+00,1.040000000000000000e+02
6.449018871480906455e+03,-1.584902668370345054e+03,8.644038717454350262e+00,9.605099234917634021e+02,-1.627928669627895943e+03,-1.618748470879084380e+03,2.054344953077070022e+04,-5.007981566302632928e+02,9.484992027282714844e+00,-7.649186849594116211e-01,-1.070886254310607910e+00,1.050000000000000000e+02
6.315828406448592432e+03,-1.403711038834362625e+03,5.396921880721765774e+01,9.217462669355691105e+02,-1.580010971103569773e+03,-1.487544459633538281e+03,1.974778618237155752e+04,-3.857752006648333918e+02,9.484992027282714844e+00,-7.649186849594116211e-01,-1.070886254310607910e+00,1.060000000000000000e+02
6.087044736726651536e+03,-1.197643649689573977e+03,1.794078205845307821e+02,9.546395890174999295e+02,-1.462085002973914015e+03,-1.296108051830902241e+03,1.870611381428424647e+04,-2.062366557222876509e+02,9.484992027282714844e+00,-7.649186849594116211e-01,-1.070886254310607910e+00,1.070000000000000000e+02
5.974322670832212680e+03,-1.196190080376976766e+03,2.508136213413508813e+02,1.041060843416573334e+03,-1.378788219267536988e+03,-1.250008887828090337e+03,1.861136110682698927e+04,-1.661760175181434533e+02,9.484992027282714844e+00,-7.649186849594116211e-01,-1.070886254310607910e+00,1.080000000000000000e+02
6.028468956528657145e+03,-1.346579064069065680e+03,2.066006020774093486e+02,1.089811931607978295e+03,-1.388675473523465371e+03,-1.353674037153115933e+03,1.813427247137230006e+04,-2.779208722378252787e+02,9.484992027282714844e+00,-7.649186849594116211e-01,-1.070886254310607910e+00,1.090000000000000000e+02
6.069426614560297821e+03,-1.385897958114514950e+03,1.440940113375927467e+02,1.062294258651337259e+03,-1.423509656613955030e+03,-1.406609005491724929e+03,1.685374127373426018e+04,-3.451524040161048106e+02,9.484992027282714844e+00,-7.649186849594116211e-01,-1.070886254310607910e+00,1.100000000000000000e+02
5.934979330701690742e+03,-1.204674424541627559e+03,1.864159699038973486e+02,1.024935897606951585e+03,-1.382148018806730761e+03,-1.281522630782224951e+03,1.609113738076376467e+04,-2.346920530642491940e+02,9.484992027282714844e+00,-7.649186849594116211e-01,-1.070886254310607910e+00,1.110000000000000000e+02
5.704725942008234597e+03,-9.986567980666482072e+02,3.133313517644046442e+02,1.056315059273837505e+03,-1.269060900794492227e+03,-1.097978122983685807e+03,1.623083023629419586e+04,-5.979179835698596435e+01,9.484992027282714844e+00,-7.649186849594116211e-01,-1.070886254310607910e+00,1.120000000000000000e+02
5.590533010186317370e+03,-9.975824757848617992e+02,3.894426332950570213e+02,1.137702198715080158e+03,-1.187519024824635835e+03,-1.055538458071999230e+03,1.602121681255572548e+04,-2.206210604309126211e+01,9.484992027282714844e+00,-7.649186849594116211e-01,-1.070886254310607910e+00,1.130000000000000000e+02
5.644605479206163182e+03,-1.147146610607243929e+03,3.502200424802304042e+02,1.179363208215065242e+03,-1.197365242007043889e+03,-1.159222314470757738e+03,1.485922878074234177e+04,-1.328129476487333704e+02,9.484992027282714844e+00,-7.649186849594116211e-01,-1.070886254310607910e+00,1.140000000000000000e+02
5.688274428488804915e+03,-1.185692676176779969e+03,2.889075364655464000e+02,1.146278774959520888e+03,-1.232766936105775130e+03,-1.213608655525875292e+03,1.367696075065311015e+04,-1.991165776009124784e+02,9.484992027282714844e+00,-7.649186849594116211e-01,-1.070886254310607910e+00,1.150000000000000000e+02
5.559429415867592979e+03,-1.007419313255316411e+03,3.261997790331424767e+02,1.107532391185336564e+03,-1.193053820926105345e+03,-1.091800387439212500e+03,1.335869518745425376e+04,-9.122723737227261154e+01,9.484992027282714844e+00,-7.649186849594116211e-01,-1.070886254310607910e+00,1.160000000000000000e+02
5.336100276725174808e+03,-8.076456580450558249e+02,4.441262845783057855e+02,1.140103864917941792e+03,-1.081760566158435267e+03,-9.103213366854502056e+02,1.344120113760965251e+04,7.895417130511577852e+01,9.484992027282714844e+00,-7.649186849594116211e-01,-1.070886254310607910e+00,1.170000000000000000e+02
5.227327512301195384e+03,-8.112503238778149353e+02,5.124803373331069452e+02,1.221480284205695170e+03,-1.001401829852055926e+03,-8.692446264773493567e+02,1.288501500567746552e+04,1.135505849063747519e+02,9.484992027282714844e+00,-7.649186849594116211e-01,-1.070886254310607910e+00,1.180000000000000000e+02
5.283453464498025824e+03,-9.629426120486150467e+02,4.701110344723520029e+02,1.260774045102511081e+03,-1.010519874074441759e+03,-9.762263683471260265e+02,1.169666560806424422e+04,2.499773481469674152e+00,9.484992027282714844e+00,-7.649186849594116211e-01,-1.070886254310607910e+00,1.190000000000000000e+02
5.327237459359172135e+03,-1.005743485592080560e+03,4.102106367925789527e+02,1.224303325806031353e+03,-1.042407671424254204e+03,-1.035461442054709551e+03,1.087674682719646626e+04,-6.304536327308505861e+01,9.484992027282714844e+00,-7.649186849594116211e-01,-1.070886254310607910e+00,1.200000000000000000e+02
5.199697237149734065e+03,-8.348925250423922080e+02,4.511973976755580225e+02,1.181444427501521204e+03,-9.994233855516927179e+02,-9.178570075472134704e+02,1.067176635315562089e+04,4.416410531436667952e+01,9.484992027282714844e+00,-7.649186849594116211e-01,-1.070886254310607910e+00,1.210000000000000000e+02
4.979778877349006507e+03,-6.396289182959792470e+02,5.716345076775369307e+02,1.208782004767364924e+03,-8.900421965012938017e+02,-7.387207844818967715e+02,1.026933962387745123e+04,2.109889091330642259e+02,9.484992027282714844e+00,-7.649186849594116211e-01,-1.070886254310607910e+00,1.220000000000000000e+02
4.874944253311194188e+03,-6.412739837390986395e+02,6.388363029551564978e+02,1.285253187268162947e+03,-8.164073040707353357e+02,-6.971239570105035455e+02,9.541652614784352409e+03,2.406307919349028452e+02,9.484992027282714844e+00,-7.649186849594116211e-01,-1.070886254310607910e+00,1.230000000000000000e+02
4.934660331885479536e+03,-7.891031939411395797e+02,5.925174892532495505e+02,1.321737067483547435e+03,-8.315503073697500440e+02,-8.008107483700055127e+02,9.103976217639654351e+03,1.252007805521125192e+02,9.484992027282714844e+00,-7.649186849594116211e-01,-1.070886254310607910e+00,1.240000000000000000e+02
4.982608527215243157e+03,-8.310390960567069669e+02,5.282013607472108561e+02,1.283849619127275218e+03,-8.666320066246571514e+02,-8.576229723282854138e+02,8.457233521490186831e+03,5.636721465473328863e+01,9.484992027282714844e+00,-7.649186849594116211e-01,-1.070886254310607910e+00,1.250000000000000000e+02
4.860677603478690799e+03,-6.612891720121642720e+02,5.648445206374854024e+02,1.239343415087372705e+03,-8.268926920918120231e+02,-7.426246374221973383e+02,6.925942748494893749e+03,1.604317492247437258e+02,9.484992027282714844e+00,-7.649186849594116211e-01,-1.070886254310607910e+00,1.260000000000000000e+02
4.647498696828961329e+03,-4.666886138689194468e+02,6.812539663900442974e+02,1.264939966567180818e+03,-7.212038782208437624e+02,-5.703335685729553006e+02,6.426751708877072815e+03,3.245851185645551595e+02,9.484992027282714844e+00,-7.649186849594116211e-01,-1.070886254310607910e+00,1.270000000000000000e+02
4.549277406653696744e+03,-4.686604404506742867e+02,7.464648445265047485e+02,1.340615160845962237e+03,-6.486268316286614208e+02,-5.353425035334175845e+02,9.480672248436014343e+03,3.531700551142221229e+02,9.484992027282714844e+00,-7.649186849594116211e-01,-1.070886254310607910e+00,1.280000000000000000e+02
4.613701227422454394e+03,-6.165148421345502356e+02,6.996854915639851242e+02,1.377509027529949890e+03,-6.629425618578825379e+02,-6.425617790460592005e+02,1.442527184939164727e+04,2.373930012397277096e+02,9.484992027282714844e+00,-7.649186849594116211e-01,-1.109132170677185059e+00,1.290000000000000000e+02
4.663388078304791634e+03,-6.582490937862025930e+02,6.323515525558141235e+02,1.340892416477978259e+03,-6.996434654607714947e+02,-6.998167264315593457e+02,1.685968701029609292e+04,1.670316641899207752e+02,9.484992027282714844e+00,-7.649186849594116211e-01,-1.109132170677185059e+00,1.300000000000000000e+02
4.541228574490678511e+03,-4.912169505490610391e+02,6.623708544185474238e+02,1.297536692714042147e+03,-6.636488140379224205e+02,-5.833532760119296654e+02,1.595461584465260057e+04,2.689652585141902819e+02,9.484992027282714844e+00,-7.649186849594116211e-01,-1.109132170677185059e+00,1.310000000000000000e+02
4.327607825705539653e+03,-3.049021389143090346e+02,7.732673531599175476e+02,1.322517614658128878e+03,-5.593070494810790478e+02,-4.099809003521681916e+02,1.481785596591993999e+04,4.325534797783793692e+02,9.484992027282714844e+00,-7.649186849594116211e-01,-1.109132170677185059e+00,1.320000000000000000e+02
4.228739259116158792e+03,-3.170656627069215574e+02,8.367509877989159577e+02,1.395469706027482971e+03,-4.854786104539298321e+02,-3.767381126088566816e+02,1.483765374532339774e+04,4.624978814028454508e+02,9.484992027282714844e+00,-7.649186849594116211e-01,-1.109132170677185059e+00,1.330000000000000000e+02
4.291492017571840734e+03,-4.711741258350716635e+02,7.887456239080329397e+02,1.429421217046550737e+03,-4.998574053451566215e+02,-4.882828022401909038e+02,1.437047264734029886e+04,3.486804687437097527e+02,9.484992027282714844e+00,-7.649186849594116211e-01,-1.109132170677185059e+00,1.340000000000000000e+02
4.339866626507540786e+03,-5.152086663129907720e+02,7.188323396938176302e+02,1.391077849374614743e+03,-5.384080471536226469e+02,-5.497288111575808216e+02,1.296349663020722437e+04,2.797040672599769096e+02,9.484992027282714844e+00,-7.649186849594116211e-01,-1.109132170677185059e+00,1.350000000000000000e+02
4.219425304272994254e+03,-3.504048603802189064e+02,7.479172082571676583e+02,1.346415891751405070e+03,-5.038712202848541892e+02,-4.358847834725775101e+02,1.225014483042582287e+04,3.810071988047620835e+02,9.484992027282714844e+00,-7.649186849594116211e-01,-1.109132170677185059e+00,1.360000000000000000e+02
4.010584456358114039e+03,-1.668923859316801099e+02,8.602286558042969773e+02,1.369521679525480067e+03,-4.019410365248595554e+02,-2.646041714834391314e+02,1.250937702842635917e+04,5.404939297912187612e+02,9.484992027282714844e+00,-7.649186849594116211e-01,-1.109132170677185059e+00,1.370000000000000000e+02
3.917038305247051539e+03,-1.803134963212482944e+02,9.236993903994161883e+02,1.440143373276676357e+03,-3.339164992041789901e+02,-2.341053338941735547e+02,1.218906952059909599e+04,5.637928417290950165e+02,9.484992027282714844e+00,-7.649186849594116211e-01,-1.109132170677185059e+00,1.380000000000000000e+02
3.984777140810743731e+03,-3.339614308210725540e+02,8.734177466208329861e+02,1.471186456986057237e+03,-3.553139274117847890e+02,-3.494596581464597875e+02,1.092749468164279824e+04,4.435575043288972665e+02,9.484992027282714844e+00,-7.649186849594116211e-01,-1.109132170677185059e+00,1.390000000000000000e+02
4.039289907873466291e+03,-3.772634079593053684e+02,8.023216135839375056e+02,1.429106727206035430e+03,-3.988885966755888148e+02,-4.165224938384424149e+02,9.954435120811544039e+03,3.692830434367806447e+02,9.484992027282714844e+00,-7.649186849594116211e-01,-1.109132170677185059e+00,1.400000000000000000e+02
3.926241119961572622e+03,-2.120583307763308767e+02,8.314178688031906859e+02,1.380893097185762599e+03,-3.685485118028987017e+02,-3.103019433665779161e+02,9.704680830447090557e+03,4.653684585161008727e+02,9.484992027282714844e+00,-7.649186849594116211e-01,-1.109132170677185059e+00,1.410000000000000000e+02
3.723697785832888258e+03,-2.917141383091529860e+01,9.414191503729607575e+02,1.401525693225148643e+03,-2.713800256300867204e+02,-1.459124626118621109e+02,9.478007579543609609e+03,6.204821185645978403e+02,9.484992027282714844e+00,-7.649186849594116211e-01,-1.109132170677185059e+00,1.420000000000000000e+02
3.633739282229294986e+03,-4.574153011523048917e+01,1.000545362083355940e+03,1.469674441762297647e+03,-2.057276512901844399e+02,-1.170568417815620705e+02,8.947705401774339407e+03,6.427088631964816159e+02,9.484992027282714844e+00,-7.649186849594116211e-01,-1.109132170677185059e+00,1.430000000000000000e+02
3.702813569933578037e+03,-2.050461706174428400e+02,9.478178422863948072e+02,1.497273840733234465e+03,-2.249403348020191515e+02,-2.276536751123178419e+02,8.201767124544490798e+03,5.247261382226470232e+02,9.484992027282714844e+00,-7.649186849594116211e-01,-1.109132170677185059e+00,1.440000000000000000e+02
3.757252788519988826e+03,-2.541488343001410612e+02,8.765495482631913546e+02,1.452189190873601547e+03,-2.650829584879802496e+02,-2.881960510242590772e+02,7.216594918629609310e+03,4.531015073378066518e+02,9.484992027282714844e+00,-7.649186849594116211e-01,-1.109132170677185059e+00,1.450000000000000000e+02
3.643735487335485232e+03,-9.268421729899228012e+01,9.045224859359705079e+02,1.402882724746665190e+03,-2.338815337858168277e+02,-1.794726153878364130e+02,6.449657888428635488e+03,5.501118448145016373e+02,9.484992027282714844e+00,-7.649186849594116211e-01,-1.109132170677185059e+00,1.460000000000000000e+02
3.442097119686590304e+03,8.898053865676638452e+01,1.011835267567089431e+03,1.423221564489598677e+03,-1.380146393482759777e+02,-1.740546688394533703e+01,6.469898096369648556e+03,7.045858875974035982e+02,9.484992027282714844e+00,-7.649186849594116211e-01,-1.109132170677185059e+00,1.470000000000000000e+02
3.354895933183652232e+03,7.331547031166974193e+01,1.069080560202347442e+03,1.490261688591515849e+03,-7.448534154236472205e+01,7.847033271410055022e+00,6.444090840130505967e+03,7.251527734422197682e+02,9.484992027282714844e+00,-7.649186849594116211e-01,-1.109132170677185059e+00,1.480000000000000000e+02
3.426543119857587953e+03,-8.373764771299465792e+01,1.016002762906381577e+03,1.516642874624658361e+03,-9.718311151844045526e+01,-1.053639336254682348e+02,5.190046143403986207e+03,6.045373394545822521e+02,9.484992027282714844e+00,-7.649186849594116211e-01,-1.109132170677185059e+00,1.490000000000000000e+02
3.482009634592335715e+03,-1.307350353212600567e+02,9.442652754113223637e+02,1.471633324148788233e+03,-1.417919919610753823e+02,-1.684499542929343079e+02,3.754571877196680362e+03,5.296603822736706206e+02,9.484992027282714844e+00,-7.649186849594116211e-01,-1.109132170677185059e+00,1.500000000000000000e+02
3.369372997322509036e+03,3.162076223962867516e+01,9.702701088246094514e+02,1.423027461973755635e+03,-1.140357710481662252e+02,-6.295231749051845327e+01,3.864483655934182025e+03,6.235337778520033680e+02,9.484992027282714844e+00,-7.649186849594116211e-01,-1.109132170677185059e+00,1.510000000000000000e+02
3.169575270271523550e+03,2.138273324248229983e+02,1.074017577479639840e+03,1.443170669031429497e+03,-2.054404269345650391e+01,9.626048470100795384e+01,4.250735128447269744e+03,7.755598689191328958e+02,9.484992027282714844e+00,-7.649186849594116211e-01,-1.109132170677185059e+00,1.520000000000000000e+02
3.084294062250117349e+03,1.994580384756900457e+02,1.127291885959140927e+03,1.509640743156468488e+03,3.991707782294975004e+01,1.195550993107508475e+02,2.702778625779050344e+03,7.946471127420745688e+02,9.484992027282714844e+00,-7.649186849594116211e-01,-1.109132170677185059e+00,1.530000000000000000e+02
3.158176695174803172e+03,4.242277760602064518e+01,1.071755493789458342e+03,1.536962044058131141e+03,1.400867818050733149e+01,4.565859410619850678e+00,1.250542823466183108e+03,6.733341896381707556e+02,9.484992027282714844e+00,-7.649186849594116211e-01,-1.109132170677185059e+00,1.540000000000000000e+02
3.218172300409474701e+03,-9.879140239081607433e+00,9.992776774761105116e+02,1.494330613198466381e+03,-3.146356880258667843e+01,-5.966025312960755400e+01,4.041756880030108732e+03,5.980008742684231038e+02,9.484992027282714844e+00,-7.649186849594116211e-01,-1.109132170677185059e+00,1.550000000000000000e+02
3.111907658822012309e+03,1.416262462235013118e+02,1.024136838035255096e+03,1.447014613972305597e+03,-2.164009040543078299e+00,4.689883902978044716e+01,1.010695116944530309e+04,6.916911409325612112e+02,9.446745872497558594e+00,-7.649186849594116211e-01,-1.070886254310607910e+00,1.560000000000000000e+02
2.916890112961671548e+03,3.127495753153107216e+02,1.125515294720890779e+03,1.465728088653288069e+03,9.297518218193681605e+01,2.084933406010759427e+02,1.383792288413138158e+04,8.444756024071821230e+02,9.446745872497558594e+00,-7.649186849594116211e-01,-1.070886254310607910e+00,1.570000000000000000e+02
2.833328881909332267e+03,2.918925544214812362e+02,1.176764837530507975e+03,1.529289952358843038e+03,1.542198475409970797e+02,2.320387631136836717e+02,1.299449880503717031e+04,8.649057472686799883e+02,9.446745872497558594e+00,-7.649186849594116211e-01,-1.070886254310607910e+00,1.580000000000000000e+02
2.908058720607552459e+03,1.326710261841099054e+02,1.119022941117566916e+03,1.553829243737553043e+03,1.282231558533987936e+02,1.138823338794736628e+02,1.086676617823745619e+04,7.434657883338968531e+02,9.446745872497558594e+00,-7.649186849594116211e-01,-1.070886254310607910e+00,1.590000000000000000e+02
2.970073854645164829e+03,8.012116313249498489e+01,1.040901745521167868e+03,1.507880837655976393e+03,8.011749367068659922e+01,4.544384989646323447e+01,1.028295126776683173e+04,6.646960481145615631e+02,9.446745872497558594e+00,-7.649186849594116211e-01,-1.070886254310607910e+00,1.600000000000000000e+02
2.866849637298282687e+03,2.321496048591543513e+02,1.057285370858123315e+03,1.455418904881857088e+03,1.032121072838028795e+02,1.482428238785537360e+02,1.041224517561170251e+04,7.519289083187522920e+02,9.446745872497558594e+00,-7.649186849594116211e-01,-1.070886254310607910e+00,1.610000000000000000e+02
2.675242226968441173e+03,4.027887383079305437e+02,1.153554565716318393e+03,1.468074023493970344e+03,1.918329408163308472e+02,3.053276186715397671e+02,9.976810209769850189e+03,8.974868247406666342e+02,9.446745872497558594e+00,-7.649186849594116211e-01,-1.070886254310607910e+00,1.620000000000000000e+02
2.595075313680878025e+03,3.783545334579644077e+02,1.206619718126581574e+03,1.526909150862710703e+03,2.502202267396241950e+02,3.239046160820853402e+02,9.285709127026040733e+03,9.126461048576957182e+02,9.446745872497558594e+00,-7.649186849594116211e-01,-1.070886254310607910e+00,1.630000000000000000e+02
2.672561700358855887e+03,2.144262169715343589e+02,1.153801133315657353e+03,1.548927687787197101e+03,2.237988234045094487e+02,2.030967737211649364e+02,8.630211566036050499e+03,7.891327137379212218e+02,9.446745872497558594e+00,-7.649186849594116211e-01,-1.070886254310607910e+00,1.640000000000000000e+02
2.736770096699054193e+03,1.605092001313537367e+02,1.078875485808913254e+03,1.502055756961935003e+03,1.737524268395388845e+02,1.343113913606266578e+02,7.786348528157295732e+03,7.099799446596425696e+02,9.446745872497558594e+00,-7.649186849594116211e-01,-1.070886254310607910e+00,1.650000000000000000e+02
2.636654881473245041e+03,3.144086318095810384e+02,1.096432808414636384e+03,1.449546733061405575e+03,1.933811668357927829e+02,2.353626639694148253e+02,7.097278658595605521e+03,7.959148233236201122e+02,9.446745872497558594e+00,-7.649186849594116211e-01,-1.070886254310607910e+00,1.660000000000000000e+02
2.450084050524148552e+03,4.859416694288652252e+02,1.192454397660622817e+03,1.462087731276175873e+03,2.796990291012123180e+02,3.884108299742169947e+02,6.936877095658346661e+03,9.388364030830125557e+02,9.446745872497558594e+00,-7.649186849594116211e-01,-1.070886254310607910e+00,1.670000000000000000e+02
2.375723991139077043e+03,4.600283816695505266e+02,1.242146900778830059e+03,1.519582312030065623e+03,3.367195683016977910e+02,4.042287805803671290e+02,6.732171165653309799e+03,9.518766517873782504e+02,9.446745872497558594e+00,-7.649186849594116211e-01,-1.070886254310607910e+00,1.680000000000000000e+02
2.457838548714307763e+03,2.932502925545913968e+02,1.183033217179122403e+03,1.539378358897588441e+03,3.082413871050623584e+02,2.830440920205410293e+02,6.033456602349806417e+03,8.277206360386662709e+02,9.446745872497558594e+00,-7.649186849594116211e-01,-1.070886254310607910e+00,1.690000000000000000e+02
2.525087421706937675e+03,2.334965358261251822e+02,1.103336132013443603e+03,1.491621466418867385e+03,2.568524544248557504e+02,2.126956951866077361e+02,5.483338438154300093e+03,7.484065003591213099e+02,9.446745872497558594e+00,-7.649186849594116211e-01,-1.070886254310607910e+00,1.700000000000000000e+02
2.427405704838713064e+03,3.781810088666152296e+02,1.120224349023847026e+03,1.441211877712227761e+03,2.769909328656442540e+02,3.097606159575307174e+02,5.529775828639745669e+03,8.337028302920903116e+02,9.446745872497558594e+00,-7.649186849594116211e-01,-1.070886254310607910e+00,1.710000000000000000e+02
2.242846520407607386e+03,5.438341768616442096e+02,1.215929476776686897e+03,1.458325331903850383e+03,3.622428834039312733e+02,4.603807260920507360e+02,5.470097898674433964e+03,9.753533297254634817e+02,9.446745872497558594e+00,-7.649186849594116211e-01,-1.070886254310607910e+00,1.720000000000000000e+02
2.168766509144775227e+03,5.219755428454004687e+02,1.261415419453536742e+03,1.521220486170552249e+03,4.139408658160075447e+02,4.779125699206151694e+02,4.791876475333592680e+03,9.864303489389867536e+02,9.446745872497558594e+00,-7.649186849594116211e-01,-1.070886254310607910e+00,1.730000000000000000e+02
2.248925431051998203e+03,3.651780042402301660e+02,1.196258328480060300e+03,1.545279202947974227e+03,3.794606337375967087e+02,3.597257140894871554e+02,4.124116765212238533e+03,8.602591710797019005e+02,9.446745872497558594e+00,-7.649186849594116211e-01,-1.070886254310607910e+00,1.740000000000000000e+02
2.314233967211078379e+03,3.118610855474021264e+02,1.113578718356861827e+03,1.498436573113254781e+03,3.255204665385599583e+02,2.898985437935739355e+02,3.982238187583470790e+03,7.803216991402709937e+02,9.446745872497558594e+00,-7.649186849594116211e-01,-1.070886254310607910e+00,1.750000000000000000e+02
2.217644539524642823e+03,4.566235906532892841e+02,1.131218734650042279e+03,1.444752439420607516e+03,3.451528529859911032e+02,3.845238574940149192e+02,3.890524991046604555e+03,8.664493416180953318e+02,9.446745872497558594e+00,-7.649186849594116211e-01,-1.070886254310607910e+00,1.760000000000000000e+02
2.037500303946015265e+03,6.191104147556843600e+02,1.228970009433180167e+03,1.456436704545098110e+03,4.298493286912039366e+02,5.310868711250996057e+02,3.474136339347964167e+03,1.008675790610196600e+03,9.446745872497558594e+00,-7.649186849594116211e-01,-1.070886254310607910e+00,1.770000000000000000e+02
1.968829221175495150e+03,5.918875720059236301e+02,1.277412870081244364e+03,1.514714063393495053e+03,4.826739841717012496e+02,5.442149768822901024e+02,3.068496372301262454e+03,1.019443180962298811e+03,9.446745872497558594e+00,-7.649186849594116211e-01,-1.070886254310607910e+00,1.780000000000000000e+02
2.053585095016324885e+03,4.275562625260095047e+02,1.216491962699936266e+03,1.536039145844230916e+03,4.512642267458982133e+02,4.227312883230192710e+02,2.737392743390550095e+03,8.928564633462801794e+02,9.446745872497558594e+00,-7.649186849594116211e-01,-1.070886254310607910e+00,1.790000000000000000e+02
2.122671260963919849e+03,3.683300294744940402e+02,1.136294088866711718e+03,1.488058291464562899e+03,3.981452763701190634e+02,3.519956308264836480e+02,2.178135276727422024e+03,8.116420662170407923e+02,9.446745872497558594e+00,-7.649186849594116211e-01,-1.070886254310607910e+00,1.800000000000000000e+02
2.029284461464654669e+03,5.124305350972485940e+02,1.151007617377262250e+03,1.434815479461091854e+03,4.141709352046141248e+02,4.479835480757556070e+02,1.801801698143497561e+03,8.940347010817372393e+02,9.446745872497558594e+00,-7.649186849594116211e-01,-1.070886254310607910e+00,1.810000000000000000e+02
1.851271009826247791e+03,6.776227152476944866e+02,1.241975036769579674e+03,1.447958035604781799e+03,4.936027672500008521e+02,5.964574576815484761e+02,2.051945610085011140e+03,1.031432549581390958e+03,9.446745872497558594e+00,-7.649186849594116211e-01,-1.070886254310607910e+00,1.820000000000000000e+02
1.783439970071467542e+03,6.530748329837397250e+02,1.285108659196825556e+03,1.507014866943462039e+03,5.416427202847239641e+02,6.098123702027010040e+02,1.884334934679078287e+03,1.039283906701830801e+03,9.446745872497558594e+00,-7.649186849594116211e-01,-1.070886254310607910e+00,1.830000000000000000e+02
1.868884805632903408e+03,4.913091576290871672e+02,1.223212775321524987e+03,1.527570327989004909e+03,5.058335763110881089e+02,4.860269559572352591e+02,4.442680344505661196e+02,9.115377046205881015e+02,9.446745872497558594e+00,-7.649186849594116211e-01,-1.070886254310607910e+00,1.840000000000000000e+02
1.940409128816751036e+03,4.342125344240944287e+02,1.145247733912871809e+03,1.477940348096160960e+03,4.505903927485510394e+02,4.119471784753700376e+02,-2.268948059433496383e+02,8.285495603544168262e+02,9.446745872497558594e+00,-7.649186849594116211e-01,-1.070886254310607910e+00,1.850000000000000000e+02
1.852091786383260114e+03,5.766607164484435089e+02,1.163510106284334597e+03,1.422151661416528441e+03,4.690729871304670269e+02,5.050676107767258145e+02,2.461425219315933646e+03,9.085916152549038998e+02,9.446745872497558594e+00,-7.649186849594116211e-01,-1.070886254310607910e+00,1.860000000000000000e+02
1.680729619315955460e+03,7.354104329923516161e+02,1.258347645618315255e+03,1.430753061809935389e+03,5.531506178285098940e+02,6.503367165319305059e+02,7.022058799104641366e+03,1.044916863910110806e+03,9.446745872497558594e+00,-6.884268522262573242e-01,-1.070886254310607910e+00,1.870000000000000000e+02
1.619222171865571909e+03,7.038741393187297035e+02,1.304793847563093550e+03,1.483820749482119936e+03,6.037517455654533478e+02,6.594350472212622662e+02,9.306581081878937766e+03,1.053142995354488903e+03,9.446745872497558594e+00,-6.884268522262573242e-01,-1.070886254310607910e+00,1.880000000000000000e+02
1.709522444196448305e+03,5.380944918570671689e+02,1.244446121188726465e+03,1.499606175816385075e+03,5.680809929532138085e+02,5.324981408166922847e+02,8.385754266014582754e+03,9.264613967070604303e+02,9.446745872497558594e+00,-6.884268522262573242e-01,-1.070886254310607910e+00,1.890000000000000000e+02
1.784368506355693171e+03,4.789517872939741210e+02,1.165020247573613688e+03,1.448133444783890809e+03,5.117675462467923353e+02,4.578268884739381974e+02,7.188227663726836909e+03,8.452485286716000701e+02,9.446745872497558594e+00,-6.884268522262573242e-01,-1.070886254310607910e+00,1.900000000000000000e+02
1.698317247103292175e+03,6.200573814778595079e+02,1.178195066208590106e+03,1.392889905778468346e+03,5.263757988922902769e+02,5.502496538213663371e+02,7.423208963104454597e+03,9.267006974947876188e+02,9.446745872497558594e+00,-6.884268522262573242e-01,-1.070886254310607910e+00,1.910000000000000000e+02
1.528944531950578494e+03,7.788820677677340427e+02,1.265264405096646442e+03,1.403470112111128401e+03,6.027738903359190772e+02,6.927596994454038395e+02,7.715079523979473379e+03,1.061763108003002799e+03,9.446745872497558594e+00,-6.884268522262573242e-01,-1.070886254310607910e+00,1.920000000000000000e+02
1.469886251783367697e+03,7.478300708426563688e+02,1.303691345037873816e+03,1.459256616687767746e+03,6.454573944149933595e+02,6.999981716915144716e+02,6.957173157211733269e+03,1.066466556265426334e+03,9.446745872497558594e+00,-6.884268522262573242e-01,-1.070886254310607910e+00,1.930000000000000000e+02
1.563206011183238843e+03,5.798780572802556890e+02,1.237509683183433026e+03,1.477044010151496877e+03,6.057641590027997154e+02,5.741284933462529807e+02,6.094451898285055904e+03,9.372033000273363541e+02,9.446745872497558594e+00,-6.884268522262573242e-01,-1.070886254310607910e+00,1.940000000000000000e+02
1.641228555898504055e+03,5.156003767270012759e+02,1.155711891060931521e+03,1.425382490941949982e+03,5.491717469405971315e+02,4.998007320872748096e+02,6.007121913352623778e+03,8.552470398230107094e+02,9.446745872497558594e+00,-6.884268522262573242e-01,-1.070886254310607910e+00,1.950000000000000000e+02
1.558080329478755630e+03,6.518217981841316941e+02,1.169813716558860506e+03,1.368302581318251214e+03,5.647749971374514644e+02,5.894059555903245382e+02,6.125839124719477695e+03,9.357636750389115150e+02,9.446745872497558594e+00,-6.884268522262573242e-01,-1.070886254310607910e+00,1.960000000000000000e+02
1.390851084648920732e+03,8.085348299801985377e+02,1.259436385008245452e+03,1.377576867841751209e+03,6.423320347616763684e+02,7.301742162457935592e+02,5.750696878201268191e+03,1.069534730025624867e+03,9.446745872497558594e+00,-6.884268522262573242e-01,-1.070886254310607910e+00,1.970000000000000000e+02
1.332652527838835340e+03,7.784195799964536491e+02,1.299650244715673580e+03,1.434012422143460753e+03,6.862816244586610992e+02,7.401431933952526379e+02,5.131435222761437217e+03,1.074587790849479461e+03,9.446745872497558594e+00,-6.884268522262573242e-01,-1.070886254310607910e+00,1.980000000000000000e+02
1.425673908738257524e+03,6.136693402012924707e+02,1.232999139802017908e+03,1.454243557363221498e+03,6.473063951506237572e+02,6.174141577086584221e+02,4.761848157713447108e+03,9.469260130679685972e+02,9.446745872497558594e+00,-6.884268522262573242e-01,-1.070886254310607910e+00,1.990000000000000000e+02
1.503294002229063153e+03,5.526541491194948321e+02,1.148557435477923718e+03,1.406039013869997234e+03,5.897664582673714904e+02,5.417776251860304910e+02,4.564189879220615694e+03,8.651845873448050952e+02,9.446745872497558594e+00,-6.884268522262573242e-01,-1.070886254310607910e+00,2.000000000000000000e+02
1.420826769631287789e+03,6.894884287967470300e+02,1.159071935887709969e+03,1.352300220192643792e+03,6.023154641774003721e+02,6.270415744300375991e+02,4.245867184771341272e+03,9.440815211485141845e+02,9.446745872497558594e+00,-6.884268522262573242e-01,-1.070886254310607910e+00,2.010000000000000000e+02
1.255712018828734472e+03,8.444647379874545550e+02,1.246298117963452569e+03,1.363069146885301052e+03,6.758146930295033599e+02,7.639646317644678675e+02,3.958422198146526171e+03,1.076239922773553644e+03,9.446745872497558594e+00,-6.884268522262573242e-01,-1.070886254310607910e+00,2.020000000000000000e+02
1.200266149850472175e+03,8.129245338260029712e+02,1.287292052260220316e+03,1.418018780363859150e+03,7.168112489133086456e+02,7.712410886188754375e+02,4.015883614434031188e+03,1.080356684449158365e+03,9.446745872497558594e+00,-6.884268522262573242e-01,-1.070886254310607910e+00,2.030000000000000000e+02
1.295450298726301298e+03,6.472277216111251619e+02,1.224146435731712700e+03,1.434888705914198908e+03,6.770029828062456545e+02,6.473093785383157410e+02,4.149657809182226629e+03,9.519264635961103522e+02,9.446745872497558594e+00,-6.884268522262573242e-01,-1.070886254310607910e+00,2.040000000000000000e+02
1.374432380541392376e+03,5.837764667330936845e+02,1.142876406776884778e+03,1.383993629053361474e+03,6.199541481418427793e+02,5.732291854946647618e+02,3.865614473286067550e+03,8.699789724509014377e+02,9.446745872497558594e+00,-6.884268522262573242e-01,-1.070886254310607910e+00,2.050000000000000000e+02
1.293671141937887114e+03,7.174972169359691634e+02,1.153718958558040413e+03,1.329596666403610925e+03,6.337133597802990153e+02,6.612093908765295964e+02,3.590704198071770406e+03,9.497033942462021514e+02,9.446745872497558594e+00,-6.884268522262573242e-01,-1.070886254310607910e+00,2.060000000000000000e+02
1.131494344137265216e+03,8.712809193930588663e+02,1.238675685996550783e+03,1.340983479115442606e+03,7.095291111954838925e+02,7.981144645332637992e+02,4.339256855768372588e+03,1.082809490006249689e+03,9.446745872497558594e+00,-6.884268522262573242e-01,-1.070886254310607910e+00,2.070000000000000000e+02
1.079968932367004527e+03,8.397307241199366672e+02,1.276827269903329125e+03,1.396316012737112942e+03,7.533975338872046450e+02,8.020102675517991884e+02,5.978040639185184773e+03,1.087036550266728682e+03,9.484992027282714844e+00,-8.031646609306335449e-01,-1.070886254310607910e+00,2.080000000000000000e+02
1.180009218940080245e+03,6.724090743577341982e+02,1.212543756713434959e+03,1.412252117919511875e+03,7.151880322818524292e+02,6.741329519869291289e+02,7.110147885934918122e+03,9.580350858143178812e+02,9.484992027282714844e+00,-8.031646609306335449e-01,-1.070886254310607910e+00,2.090000000000000000e+02
1.265306114991860341e+03,6.057880146813172360e+02,1.133129986845730400e+03,1.358794785583620069e+03,6.576267255430011573e+02,5.968742598988492318e+02,7.034380139477779267e+03,8.748494023998487137e+02,9.484992027282714844e+00,-8.031646609306335449e-01,-1.070886254310607910e+00,2.100000000000000000e+02
1.191541817053954219e+03,7.366682776804068453e+02,1.147508021122505397e+03,1.301036316368097687e+03,6.692923219111644357e+02,6.818302544194898474e+02,6.522936508126108492e+03,9.521026502035279009e+02,9.484992027282714844e+00,-8.031646609306335449e-01,-1.070886254310607910e+00,2.110000000000000000e+02
1.034778868500768112e+03,8.883732078074278888e+02,1.234472910080043221e+03,1.309863342777440721e+03,7.417158195624865584e+02,8.161801811184941471e+02,6.360812258654936159e+03,1.081918620382046583e+03,9.484992027282714844e+00,-8.031646609306335449e-01,-1.070886254310607910e+00,2.120000000000000000e+02
9.858691136370471213e+02,8.561602572051492643e+02,1.271712274147261724e+03,1.364337870563027082e+03,7.812011677517798489e+02,8.183852925490027701e+02,6.417806863782135224e+03,1.083474962131112306e+03,9.484992027282714844e+00,-8.031646609306335449e-01,-1.070886254310607910e+00,2.130000000000000000e+02
1.086512077822490937e+03,6.910772593608369334e+02,1.205049971985003594e+03,1.380842470201072501e+03,7.388762522507604444e+02,6.886162891794733696e+02,6.401133139242471771e+03,9.528787076604678532e+02,9.484992027282714844e+00,-8.031646609306335449e-01,-1.070886254310607910e+00,2.140000000000000000e+02
1.171599207865017434e+03,6.276258183719028239e+02,1.122638099861127102e+03,1.328876526165074665e+03,6.782011340475937686e+02,6.092388856579682397e+02,6.357141597104562607e+03,8.682050621217592834e+02,9.484992027282714844e+00,-8.031646609306335449e-01,-1.070886254310607910e+00,2.150000000000000000e+02
1.097756484571088549e+03,7.577763697607979338e+02,1.132274268860704069e+03,1.272899258013544113e+03,6.870997909871380216e+02,6.940748729602380536e+02,6.272955291383985241e+03,9.435404279688175393e+02,9.484992027282714844e+00,-8.031646609306335449e-01,-1.070886254310607910e+00,2.160000000000000000e+02
9.419509899650115585e+02,9.046678986649594663e+02,1.212978407321897976e+03,1.282559875576811919e+03,7.570126916275137319e+02,8.311404560880021108e+02,6.043323682814271706e+03,1.071838225815263058e+03,9.484992027282714844e+00,-8.031646609306335449e-01,-1.070886254310607910e+00,2.170000000000000000e+02
8.950102064410020830e+02,8.687802901268171354e+02,1.245368711307432022e+03,1.336345706562536179e+03,7.950991595885614061e+02,8.368536488018130513e+02,5.862028301673691203e+03,1.073285832025242144e+03,9.484992027282714844e+00,-8.031646609306335449e-01,-1.070886254310607910e+00,2.180000000000000000e+02
9.976851837843805697e+02,7.036417950383181505e+02,1.177288900208753603e+03,1.351871511263057528e+03,7.518109855393006455e+02,7.097633266161117263e+02,5.938729717030842039e+03,9.438221434936997412e+02,9.484992027282714844e+00,-8.031646609306335449e-01,-1.070886254310607910e+00,2.190000000000000000e+02
1.084927696442679917e+03,6.412254535016425052e+02,1.095730665413454062e+03,1.299833544151041679e+03,6.887890317530889206e+02,6.320826352852182026e+02,6.041986680324157533e+03,8.602914194451245748e+02,9.484992027282714844e+00,-8.031646609306335449e-01,-1.070886254310607910e+00,2.200000000000000000e+02
1.014336462800720255e+03,7.718870352542035107e+02,1.106889726396280821e+03,1.243984603335937209e+03,6.945327156314201602e+02,7.165512365285462693e+02,5.865211951462777506e+03,9.358413886772918886e+02,9.484992027282714844e+00,-8.031646609306335449e-01,-1.070886254310607910e+00,2.210000000000000000e+02
8.621591480520082769e+02,9.192459067022330146e+02,1.190123313354687525e+03,1.252986942947037278e+03,7.630957302789258847e+02,8.500637284752499454e+02,5.560066858398299701e+03,1.063864993142027743e+03,9.484992027282714844e+00,-8.031646609306335449e-01,-1.070886254310607910e+00,2.220000000000000000e+02
8.169664555291878969e+02,8.827044857340192721e+02,1.226179078762655081e+03,1.305962161693345479e+03,8.019489000567705261e+02,8.509323508385064088e+02,5.469530458453274150e+03,1.065517527681769934e+03,9.484992027282714844e+00,-8.031646609306335449e-01,-1.070886254310607910e+00,2.230000000000000000e+02
9.188811904661065455e+02,7.149927357508436216e+02,1.160704966384771069e+03,1.321500456908842352e+03,7.593160973387575723e+02,7.207051921837528425e+02,5.590330089213757674e+03,9.364100844541235347e+02,9.484992027282714844e+00,-8.031646609306335449e-01,-1.070886254310607910e+00,2.240000000000000000e+02
1.004301008089890729e+03,6.506174117534653760e+02,1.078870300990548230e+03,1.269971955967843769e+03,6.963973248152863107e+02,6.415596532758775083e+02,5.631242952078804592e+03,8.522801145300593362e+02,9.484992027282714844e+00,-8.031646609306335449e-01,-1.070886254310607910e+00,2.250000000000000000e+02
9.319207417588286262e+02,7.812564173613629919e+02,1.088722694993741243e+03,1.214166437069797666e+03,7.037621498112735026e+02,7.245662790250876242e+02,5.449082925980699656e+03,9.269374578412507617e+02,9.484992027282714844e+00,-8.031646609306335449e-01,-1.070886254310607910e+00,2.260000000000000000e+02
7.782983768301492091e+02,9.273344047450050311e+02,1.172603345262540188e+03,1.222163150970757670e+03,7.759491491866524484e+02,8.570923964175922265e+02,5.200423697204629207e+03,1.055925037782751815e+03,9.484992027282714844e+00,-8.031646609306335449e-01,-1.070886254310607910e+00,2.270000000000000000e+02
7.326561965226014763e+02,8.866858595196124497e+02,1.210546428469417833e+03,1.273151562531163563e+03,8.180710920399174029e+02,8.586507421566036555e+02,5.112346400728003573e+03,1.060392184595512163e+03,9.484992027282714844e+00,-8.031646609306335449e-01,-1.070886254310607910e+00,2.280000000000000000e+02
8.356068112230632323e+02,7.155715312564291253e+02,1.145065549053128507e+03,1.286947401832209835e+03,7.765751864087667400e+02,7.293762720316151444e+02,5.203124523775830312e+03,9.329726224235423615e+02,9.484992027282714844e+00,-8.031646609306335449e-01,-1.070886254310607910e+00,2.290000000000000000e+02
9.234174624954316641e+02,6.503079666568096400e+02,1.061056929097301463e+03,1.235705752814996004e+03,7.130223872716674123e+02,6.490779776554504679e+02,5.256096848339288954e+03,8.473259464761574691e+02,9.484992027282714844e+00,-8.031646609306335449e-01,-1.070886254310607910e+00,2.300000000000000000e+02
8.550827644245150623e+02,7.795734312730667170e+02,1.069148540387570165e+03,1.182252769306590380e+03,7.182432003882433946e+02,7.291194397459603351e+02,5.097710111162538851e+03,9.182479353030917082e+02,9.484992027282714844e+00,-8.031646609306335449e-01,-1.070886254310607910e+00,2.310000000000000000e+02
7.073248130529200353e+02,9.230213297079819768e+02,1.152558413924252363e+03,1.192754756870528581e+03,7.863997937033386734e+02,8.591862505181748020e+02,4.843358008431216149e+03,1.043085247325113642e+03,9.484992027282714844e+00,-8.031646609306335449e-01,-1.070886254310607910e+00,2.320000000000000000e+02
6.674091940954472193e+02,8.822339360891864999e+02,1.190188302518896990e+03,1.245518976997392201e+03,8.238793884751862606e+02,8.601815411956799835e+02,4.749239783662487753e+03,1.044176516995695692e+03,9.446745872497558594e+00,-6.884268522262573242e-01,-1.147378087043762207e+00,2.330000000000000000e+02
7.734365198068881000e+02,7.144339381472746027e+02,1.124686938374643205e+03,1.261327776150879799e+03,7.796542034041485749e+02,7.319891423468657194e+02,4.852801141138217645e+03,9.156375410036212088e+02,9.446745872497558594e+00,-6.884268522262573242e-01,-1.147378087043762207e+00,2.340000000000000000e+02
8.624286901574746480e+02,6.523254527952367425e+02,1.041470310689101325e+03,1.212338937180336870e+03,7.154743698457709797e+02,6.532750292948103379e+02,4.914918020478444305e+03,8.316270842620849635e+02,9.446745872497558594e+00,-6.884268522262573242e-01,-1.147378087043762207e+00,2.350000000000000000e+02
7.964766717450220312e+02,7.831750886348863787e+02,1.049108224887292636e+03,1.159786385351386343e+03,7.196541223397302929e+02,7.338149859618652044e+02,4.755038349976217432e+03,9.043795817244827049e+02,9.446745872497558594e+00,-6.884268522262573242e-01,-1.147378087043762207e+00,2.360000000000000000e+02
6.530984357941151757e+02,9.283655075414349085e+02,1.128728664794610268e+03,1.169477312758691824e+03,7.851664385057588333e+02,8.623479514902924166e+02,4.505306658988697563e+03,1.028496205685634777e+03,9.446745872497558594e+00,-6.884268522262573242e-01,-1.147378087043762207e+00,2.370000000000000000e+02
6.176525477882769337e+02,8.885826437139626250e+02,1.161337445786630269e+03,1.220953331117359994e+03,8.201469832540938114e+02,8.604404115430388629e+02,4.420037074288889016e+03,1.027521446523380291e+03,9.446745872497558594e+00,-6.884268522262573242e-01,-1.147378087043762207e+00,2.380000000000000000e+02
7.273731451026615105e+02,7.186120697705869134e+02,1.093284739690053812e+03,1.235056709176049026e+03,7.750152622568152765e+02,7.291132059720989673e+02,4.527438654540568677e+03,8.982200580518592687e+02,9.446745872497558594e+00,-6.884268522262573242e-01,-1.147378087043762207e+00,2.390000000000000000e+02
8.198385016459405961e+02,6.530882646137833945e+02,1.010143858180017560e+03,1.182835543882888942e+03,7.106535423467630608e+02,6.472827726632958729e+02,4.590816352170135360e+03,8.141340740719751921e+02,9.446745872497558594e+00,-6.884268522262573242e-01,-1.147378087043762207e+00,2.400000000000000000e+02
7.561302148840859445e+02,7.833584360966428903e+02,1.018332396511079878e+03,1.126270223470160090e+03,7.142914514808726381e+02,7.251469093316568433e+02,4.435307102852504613e+03,8.857026931452592180e+02,9.446745872497558594e+00,-6.884268522262573242e-01,-1.147378087043762207e+00,2.410000000000000000e+02
6.116663781237784860e+02,9.308694363094391520e+02,1.098450237829442813e+03,1.133676135445805812e+03,7.789669339784104523e+02,8.530530734503086023e+02,4.189056545396990259e+03,1.008726520757600611e+03,9.446745872497558594e+00,-6.884268522262573242e-01,-1.147378087043762207e+00,2.420000000000000000e+02
5.722007441345140251e+02,8.940885092483981680e+02,1.131803504902145960e+03,1.185332875478787173e+03,8.127586677264994250e+02,8.537233813412858581e+02,4.106004202681750030e+03,1.008617420393671182e+03,9.446745872497558594e+00,-6.884268522262573242e-01,-1.147378087043762207e+00,2.430000000000000000e+02
6.777596334491445305e+02,7.273441593352872587e+02,1.064137213269314998e+03,1.200120825697612872e+03,7.661382523737447627e+02,7.270697744094186419e+02,4.215303286071586626e+03,8.811113016649496785e+02,9.446745872497558594e+00,-6.884268522262573242e-01,-1.147378087043762207e+00,2.440000000000000000e+02
7.675844113866178304e+02,6.639963981214118576e+02,9.816558696087195131e+02,1.147371276419172318e+03,7.017524879410093490e+02,6.492361533294242690e+02,4.281328541480881540e+03,7.982983812091879372e+02,9.446745872497558594e+00,-6.884268522262573242e-01,-1.147378087043762207e+00,2.450000000000000000e+02
7.025688140277507046e+02,7.921784437635478753e+02,9.929377567377418927e+02,1.089314970607074429e+03,7.084311839848005548e+02,7.278055611591867091e+02,4.129701599985772191e+03,8.711817740884321211e+02,9.446745872497558594e+00,-6.884268522262573242e-01,-1.147378087043762207e+00,2.460000000000000000e+02
5.580025502556609354e+02,9.341281225270554387e+02,1.077974215321634347e+03,1.094986362143712540e+03,7.772897349565673721e+02,8.524324510351671051e+02,3.888753944914165913e+03,9.953695801102330734e+02,9.446745872497558594e+00,-6.884268522262573242e-01,-1.147378087043762207e+00,2.470000000000000000e+02
5.192483624718115607e+02,8.942733405302037681e+02,1.114471055331976459e+03,1.144510853265501282e+03,8.129946177370420628e+02,8.479519991275083157e+02,3.812000988693696854e+03,9.944173962332542942e+02,9.446745872497558594e+00,-6.884268522262573242e-01,-1.147378087043762207e+00,2.480000000000000000e+02
6.244616033005077043e+02,7.300383472232151689e+02,1.047465786510395446e+03,1.156614200759415326e+03,7.661012470559771828e+02,7.174739443018365819e+02,3.927368613228627510e+03,8.643563270600948272e+02,9.446745872497558594e+00,-6.884268522262573242e-01,-1.147378087043762207e+00,2.490000000000000000e+02
7.114421641886847283e+02,6.717559873276604776e+02,9.659109453338733147e+02,1.101445436140355014e+03,7.019415115639785654e+02,6.384082544554048582e+02,3.998619419466949694e+03,7.798479576670270035e+02,9.446745872497558594e+00,-6.884268522262573242e-01,-1.147378087043762207e+00,2.500000000000000000e+02
6.420888511677667339e+02,8.043987118558034126e+02,9.779228370604023439e+02,1.042212284892228126e+03,7.095322924923220853e+02,7.177272774009061322e+02,3.852316395627054590e+03,8.523264648851991296e+02,9.446745872497558594e+00,-6.884268522262573242e-01,-1.147378087043762207e+00,2.510000000000000000e+02
4.931866200837994256e+02,9.496890888481575530e+02,1.059573464402108584e+03,1.047956526005677006e+03,7.779823946469741713e+02,8.447968453687399233e+02,3.617300130209576309e+03,9.759460630327412218e+02,9.446745872497558594e+00,-6.884268522262573242e-01,-1.147378087043762207e+00,2.520000000000000000e+02
4.500963252778765309e+02,9.110577276571229959e+02,1.089253080253660301e+03,1.098330468769241634e+03,8.125030875416887284e+02,8.438092755942179792e+02,3.545869742789565862e+03,9.751089155992335691e+02,9.446745872497558594e+00,-6.884268522262573242e-01,-1.147378087043762207e+00,2.530000000000000000e+02
5.513157607924804324e+02,7.447789614019266082e+02,1.017860198371970000e+03,1.112259059083638931e+03,7.660881561739897734e+02,7.153694121837779676e+02,3.664817270787651069e+03,8.476317109805258951e+02,9.446745872497558594e+00,-6.884268522262573242e-01,-1.147378087043762207e+00,2.540000000000000000e+02
6.364340515743369906e+02,6.825952454162616050e+02,9.361157157017742065e+02,1.060574486050403721e+03,7.030663214780770431e+02,6.354867653087776489e+02,3.738877061174720438e+03,7.664485338684553426e+02,9.446745872497558594e+00,-6.884268522262573242e-01,-1.147378087043762207e+00,2.550000000000000000e+02
5.678575197235149972e+02,8.113468798663825510e+02,9.481010458595874297e+02,1.006428503114310843e+03,7.087438907083687809e+02,7.137089087378444674e+02,3.596229187645023558e+03,8.398312610385446533e+02,9.446745872497558594e+00,-6.884268522262573242e-01,-1.147378087043762207e+00,2.560000000000000000e+02
4.204924246681384830e+02,9.526119452333441586e+02,1.029023244810474353e+03,1.017561402690733303e+03,7.725591044446837259e+02,8.421069884872476905e+02,3.365723472046280222e+03,9.625218331993428365e+02,9.446745872497558594e+00,-6.884268522262573242e-01,-1.147378087043762207e+00,2.570000000000000000e+02
3.784692983061668201e+02,9.100230435386856698e+02,1.061284792822564668e+03,1.072049620265724116e+03,8.045531545427875244e+02,8.435909057442404446e+02,3.298731645980325993e+03,9.617486633100543258e+02,9.446745872497558594e+00,-6.884268522262573242e-01,-1.147378087043762207e+00,2.580000000000000000e+02
4.810172314265364548e+02,7.414955262172843504e+02,9.956911293657931310e+02,1.088481319797813740e+03,7.593285535202376195e+02,7.167469811307028067e+02,3.421971669394424680e+03,8.353327752965851687e+02,9.446745872497558594e+00,-6.884268522262573242e-01,-1.147378087043762207e+00,2.590000000000000000e+02
5.681167122177375859e+02,6.789359017306578608e+02,9.173543675889350197e+02,1.038601908734454810e+03,6.972224688152755334e+02,6.382792844508230701e+02,3.500115015245919494e+03,7.540067780157251036e+02,9.523238182067871094e+00,-7.266727685928344727e-01,-1.109132170677185059e+00,2.600000000000000000e+02
5.017765751841488964e+02,8.075706300746205670e+02,9.288971610915987185e+02,9.856367872251094013e+02,7.015203910349646321e+02,7.178131433270909838e+02,3.362076914421781112e+03,8.258052868399436193e+02,9.523238182067871094e+00,-7.266727685928344727e-01,-1.109132170677185059e+00,2.610000000000000000e+02
3.575085465885185840e+02,9.481986655413038534e+02,1.010332538387770001e+03,9.956460786150655622e+02,7.652779770004481179e+02,8.450623462300591200e+02,3.136061338345458353e+03,9.471558944412417986e+02,9.523238182067871094e+00,-7.266727685928344727e-01,-1.109132170677185059e+00,2.620000000000000000e+02
3.201382430043668137e+02,9.043457542005598953e+02,1.045558911462785545e+03,1.045936766188604452e+03,8.005284117252504075e+02,8.429801326067736227e+02,3.072737783180895349e+03,9.457202320687974861e+02,9.523238182067871094e+00,-7.266727685928344727e-01,-1.109132170677185059e+00,2.630000000000000000e+02
4.276326441636247182e+02,7.334549019007545212e+02,9.806215349295507622e+02,1.057269831776040519e+03,7.576812818198386594e+02,7.138049712260672095e+02,3.198640261935928720e+03,8.182930312227554168e+02,9.523238182067871094e+00,-7.266727685928344727e-01,-1.109132170677185059e+00,2.640000000000000000e+02
5.184712663682403218e+02,6.679546455861382128e+02,8.985248688877582026e+02,1.003639146696119496e+03,6.937744121381638251e+02,6.352043521667483219e+02,3.279623508622331428e+03,7.356477629603423338e+02,9.523238182067871094e+00,-7.266727685928344727e-01,-1.109132170677185059e+00,2.650000000000000000e+02
4.552676819739517668e+02,7.944098641653690720e+02,9.061893710535368882e+02,9.477105787866003084e+02,6.953333801626022250e+02,7.134159092764148227e+02,3.144740838695681305e+03,8.074538190637913431e+02,9.523238182067871094e+00,-7.266727685928344727e-01,-1.109132170677185059e+00,2.660000000000000000e+02
3.142349531655690953e+02,9.336341412515721458e+02,9.867071821650160928e+02,9.548881334485104162e+02,7.590147078939735366e+02,8.368241700261232836e+02,2.922506799557559134e+03,9.309965996382115918e+02,9.523238182067871094e+00,-7.266727685928344727e-01,-1.109132170677185059e+00,2.670000000000000000e+02
2.787667346477173851e+02,8.890774897999499444e+02,1.021674374889991668e+03,1.004582828920463726e+03,7.948702718889026073e+02,8.312902490544820466e+02,2.863122315097956744e+03,9.325608155025929591e+02,9.523238182067871094e+00,-7.266727685928344727e-01,-1.109132170677185059e+00,2.680000000000000000e+02
3.856943783590741077e+02,7.195642712662238409e+02,9.553937552654842875e+02,1.018961175399394051e+03,7.508782633011123835e+02,7.007785619273327029e+02,2.992459374760597711e+03,8.069563982180243329e+02,9.523238182067871094e+00,-7.266727685928344727e-01,-1.109132170677185059e+00,2.690000000000000000e+02
4.752166198804079613e+02,6.568704766644332267e+02,8.731986589772432126e+02,9.693989977102992270e+02,6.863494271699819365e+02,6.213613437522762979e+02,3.076385193361747952e+03,7.243698842141011482e+02,9.523238182067871094e+00,-7.266727685928344727e-01,-1.109132170677185059e+00,2.700000000000000000e+02
4.124523068526705174e+02,7.835945910672253376e+02,8.831425008521136988e+02,9.157370064177630411e+02,6.895386107264639577e+02,6.981562897556786993e+02,2.944750273079982435e+03,7.946528743223434503e+02,9.523238182067871094e+00,-7.266727685928344727e-01,-1.109132170677185059e+00,2.710000000000000000e+02
2.741615060134517989e+02,9.192778436624166716e+02,9.650889426584999455e+02,9.240958268779850187e+02,7.535983301604674125e+02,8.205786136136621280e+02,2.726556850283435779e+03,9.148692885276122979e+02,9.523238182067871094e+00,-7.266727685928344727e-01,-1.109132170677185059e+00,2.720000000000000000e+02
2.428747621648180939e+02,8.710200528011355345e+02,9.981685856597277962e+02,9.748673598285440676e+02,7.857118874288589723e+02,8.155661105498875258e+02,2.671159885060395027e+03,9.118473998041054074e+02,9.523238182067871094e+00,-7.266727685928344727e-01,-1.109132170677185059e+00,2.730000000000000000e+02
3.544425963484427484e+02,6.997506047453071005e+02,9.287309829467994859e+02,9.889281301418541261e+02,7.369105961812056194e+02,6.870773449868765965e+02,2.803194973534507881e+03,7.826419605347509787e+02,9.523238182067871094e+00,-7.266727685928344727e-01,-1.109132170677185059e+00,2.740000000000000000e+02
4.479869476810417837e+02,6.357344875366434280e+02,8.446410007087724807e+02,9.379340743243737961e+02,6.698893393745292997e+02,6.101830032132484121e+02,2.888739726176863769e+03,6.989889654737580713e+02,9.523238182067871094e+00,-7.266727685928344727e-01,-1.109132170677185059e+00,2.750000000000000000e+02
3.878651683300013246e+02,7.621688275178394179e+02,8.532155495465012791e+02,8.849083738438057480e+02,6.709737758420942555e+02,6.882730663191505300e+02,2.758937147788012226e+03,7.695299783337613917e+02,9.523238182067871094e+00,-7.266727685928344727e-01,-1.109132170677185059e+00,2.760000000000000000e+02
2.509725207711417170e+02,9.014535156777628799e+02,9.332199507316654490e+02,8.966570665348590410e+02,7.309407940424571279e+02,8.100414300475185883e+02,2.543054164743742149e+03,8.895259722333212267e+02,9.523238182067871094e+00,-7.266727685928344727e-01,-1.109132170677185059e+00,2.770000000000000000e+02
2.199668392316707468e+02,8.595664759963601682e+02,9.653547213494675816e+02,9.501190545178869797e+02,7.595373335666045023e+02,8.036956179579483432e+02,2.489621261425829289e+03,8.860186434426987034e+02,9.523238182067871094e+00,-7.266727685928344727e-01,-1.109132170677185059e+00,2.780000000000000000e+02
3.303315565444318054e+02,6.929894213744264562e+02,8.975533905498068634e+02,9.643050393884059304e+02,7.108217869584550499e+02,6.739408295324610663e+02,2.623515495691783144e+03,7.571446107061383373e+02,9.523238182067871094e+00,-7.266727685928344727e-01,-1.109132170677185059e+00,2.790000000000000000e+02
4.219291009208391188e+02,6.302015791580433870e+02,8.163629776624693477e+02,9.126062587197902758e+02,6.457387538185394078e+02,5.947914385993190081e+02,2.712463714326499030e+03,6.747842903544151341e+02,9.523238182067871094e+00,-7.266727685928344727e-01,-1.109132170677185059e+00,2.800000000000000000e+02
3.612552180755665177e+02,7.550196776885541112e+02,8.268673296430170012e+02,8.586008220052899560e+02,6.477670630863904080e+02,6.699858797289398353e+02,2.588250001648750185e+03,7.472799322738246701e+02,9.523238182067871094e+00,-7.266727685928344727e-01,-1.109132170677185059e+00,2.810000000000000000e+02
2.258591676788164477e+02,8.898860849258926464e+02,9.072912263782727678e+02,8.675161135559210379e+02,7.083423206206934992e+02,7.908292397604054713e+02,2.378410485328236973e+03,8.694114537084533367e+02,9.523238182067871094e+00,-7.266727685928344727e-01,-1.109132170677185059e+00,2.820000000000000000e+02
1.965037689866840083e+02,8.424179161179727089e+02,9.386859629524933553e+02,9.171008571470592869e+02,7.386375300712988974e+02,7.859394731876182050e+02,2.329126455267673009e+03,8.670933166228842310e+02,9.523238182067871094e+00,-7.266727685928344727e-01,-1.109132170677185059e+00,2.830000000000000000e+02
3.077085659510375990e+02,6.729283143020365969e+02,8.691776280495505489e+02,9.293755025175851188e+02,6.918640961243727361e+02,6.574055312516320555e+02,2.464582331289737340e+03,7.380955574355084536e+02,9.523238182067871094e+00,-7.266727685928344727e-01,-1.109132170677185059e+00,2.840000000000000000e+02
4.012283738141159120e+02,6.106503512739345751e+02,7.862269024717679713e+02,8.779334616188007203e+02,6.284464015249031945e+02,5.786869071946384793e+02,2.553448201882776630e+03,6.556639264904115407e+02,9.523238182067871094e+00,-7.266727685928344727e-01,-1.109132170677185059e+00,2.850000000000000000e+02
3.447582394392047718e+02,7.363431455337758962e+02,7.964731823226902634e+02,8.238759054531910806e+02,6.329332182347807247e+02,6.554369445432857901e+02,2.428511480453045806e+03,7.285724979772694496e+02,9.523238182067871094e+00,-7.266727685928344727e-01,-1.109132170677185059e+00,2.860000000000000000e+02
2.138231611670271377e+02,8.715649154180046025e+02,8.787204129685487715e+02,8.319261614364113484e+02,6.962298451584410941e+02,7.780547923691483447e+02,2.217202494209413999e+03,8.499244403907596279e+02,9.523238182067871094e+00,-7.266727685928344727e-01,-1.109132170677185059e+00,2.870000000000000000e+02
1.873241783217999910e+02,8.256400549689878972e+02,9.134972048352046841e+02,8.813461739643189503e+02,7.276094310992248211e+02,7.722243584975622070e+02,2.167117396290719626e+03,8.458028352136389003e+02,9.523238182067871094e+00,-7.266727685928344727e-01,-1.109132170677185059e+00,2.880000000000000000e+02
3.008698501931830833e+02,6.575910377718828386e+02,8.484399987007673190e+02,8.942040124629911588e+02,6.812188436598189583e+02,6.412478514952672413e+02,2.303640713539120043e+03,7.172397626240071986e+02,9.523238182067871094e+00,-7.266727685928344727e-01,-1.109132170677185059e+00,2.890000000000000000e+02
3.971434329245712433e+02,5.933462611387058132e+02,7.701215654669031210e+02,8.431976634692091466e+02,6.200611326779508090e+02,5.625193145157791150e+02,2.395764444248990912e+03,6.382028220631436852e+02,9.523238182067871094e+00,-7.266727685928344727e-01,-1.109132170677185059e+00,2.900000000000000000e+02
3.420876708267715003e+02,7.145570455282650073e+02,7.831924235865390074e+02,7.902008902852012397e+02,6.277886765605435357e+02,6.414761376431706594e+02,2.275290712868547416e+03,7.136318375079481484e+02,9.484992027282714844e+00,-5.736890435218811035e-01,-1.147378087043762207e+00,2.910000000000000000e+02
2.101181850419743569e+02,8.469453540941249230e+02,8.651581014315670473e+02,8.008634326200954092e+02,6.923479988119033806e+02,7.653793274702529743e+02,2.069115732567828672e+03,8.347184425786181237e+02,9.484992027282714844e+00,-5.736890435218811035e-01,-1.147378087043762207e+00,2.920000000000000000e+02
1.821670829525828594e+02,8.013788480264483951e+02,8.979964110268429067e+02,8.529958821498494217e+02,7.231849939459534653e+02,7.600964894899097999e+02,2.023501239883946255e+03,8.303587037215220334e+02,9.484992027282714844e+00,-5.736890435218811035e-01,-1.147378087043762207e+00,2.930000000000000000e+02
2.956363891724904533e+02,6.355289370526716084e+02,8.320024950584629551e+02,8.668360851854831708e+02,6.761848816046276625e+02,6.306258284327868751e+02,2.163087504210365296e+03,7.028043584495717369e+02,9.484992027282714844e+00,-5.736890435218811035e-01,-1.147378087043762207e+00,2.940000000000000000e+02
3.922989538998444914e+02,5.744152615112689091e+02,7.542563532755575579e+02,8.158379581838034937e+02,6.133209263787211967e+02,5.521322451825908502e+02,2.256790389876259724e+03,6.229275113206167589e+02,9.484992027282714844e+00,-5.736890435218811035e-01,-1.147378087043762207e+00,2.950000000000000000e+02
3.374696425802139856e+02,6.990608204558520811e+02,7.674170725105686870e+02,7.637516888049849513e+02,6.169406157725770754e+02,6.271335276287391025e+02,2.138044072710625187e+03,6.944290733501147770e+02,9.484992027282714844e+00,-5.736890435218811035e-01,-1.147378087043762207e+00,2.960000000000000000e+02
2.068781858808033576e+02,8.339572597064088768e+02,8.475948793117077003e+02,7.764377180821466027e+02,6.770781208704211167e+02,7.452944819848980842e+02,1.935519874386824085e+03,8.117839216787906480e+02,9.484992027282714844e+00,-5.736890435218811035e-01,-1.147378087043762207e+00,2.970000000000000000e+02
1.814809205427736742e+02,7.895300989160386962e+02,8.779468917359954503e+02,8.308145437210114324e+02,7.052197510985297413e+02,7.369607988002953789e+02,1.894898417976743076e+03,8.062127665444222657e+02,9.484992027282714844e+00,-5.736890435218811035e-01,-1.147378087043762207e+00,2.980000000000000000e+02
2.964110202760057291e+02,6.236193458967263723e+02,8.105071502862610942e+02,8.469257425307005178e+02,6.559734282548379269e+02,6.073603748579116655e+02,2.038827298197211348e+03,6.788282188226294238e+02,9.484992027282714844e+00,-5.736890435218811035e-01,-1.147378087043762207e+00,2.990000000000000000e+02
3.927717235870877630e+02,5.607457267359823163e+02,7.319446330021255562e+02,7.982413612408126937e+02,5.905273206694055261e+02,5.295120540589305165e+02,2.135759760520391865e+03,5.997353159969388798e+02,9.484992027282714844e+00,-5.736890435218811035e-01,-1.147378087043762207e+00,3.000000000000000000e+02
3.380756200984251336e+02,6.825496071556681272e+02,7.435956515860398213e+02,7.475600790075004625e+02,5.933380520398823137e+02,6.061334788733747700e+02,2.020088956142870302e+03,6.734120967263406783e+02,9.484992027282714844e+00,-5.736890435218811035e-01,-1.147378087043762207e+00,3.010000000000000000e+02
2.092802864179320750e+02,8.161326187211561773e+02,8.223541658634349005e+02,7.595906844947567151e+02,6.551369963606412057e+02,7.278633113507930830e+02,1.820421152859722497e+03,7.938771392786111392e+02,9.484992027282714844e+00,-5.736890435218811035e-01,-1.147378087043762207e+00,3.020000000000000000e+02
1.858561215455192723e+02,7.726217622926251352e+02,8.530936334911621088e+02,8.116097243675212667e+02,6.848537810813559190e+02,7.235770405023213243e+02,1.781273095257543901e+03,7.906836357513493567e+02,9.484992027282714844e+00,-5.736890435218811035e-01,-1.147378087043762207e+00,3.030000000000000000e+02
3.016545013886534434e+02,6.071324118370957876e+02,7.868774644865570735e+02,8.256318656262119475e+02,6.357498045187803655e+02,5.965460878671710816e+02,1.925159480205962609e+03,6.641855992639721080e+02,9.484992027282714844e+00,-5.736890435218811035e-01,-1.147378087043762207e+00,3.040000000000000000e+02
3.984129940481216181e+02,5.426733909953818511e+02,7.079483947307817289e+02,7.768036296534737630e+02,5.705255892075019801e+02,5.201790326970785827e+02,2.021842517692311958e+03,5.844618270927094272e+02,9.484992027282714844e+00,-5.736890435218811035e-01,-1.147378087043762207e+00,3.050000000000000000e+02
3.444151187424467935e+02,6.623816792333291232e+02,7.181100129743608704e+02,7.275116697183148062e+02,5.742260754266244476e+02,5.982799850417359266e+02,1.906891602550422249e+03,6.562807141230005072e+02,9.484992027282714844e+00,-5.736890435218811035e-01,-1.147378087043762207e+00,3.060000000000000000e+02
2.163900112648370850e+02,7.940984438573887019e+02,7.965827607518094737e+02,7.404854662265024672e+02,6.363555294599464105e+02,7.207190570480051974e+02,1.709131931170930329e+03,7.750690399867053202e+02,9.484992027282714844e+00,-5.736890435218811035e-01,-1.147378087043762207e+00,3.070000000000000000e+02
1.935687316772964550e+02,7.487595672412808199e+02,8.279015113411860511e+02,7.916671765327046160e+02,6.660333478790671506e+02,7.148681595471643959e+02,1.672786371324138599e+03,7.715596579888169799e+02,9.484992027282714844e+00,-5.736890435218811035e-01,-1.147378087043762207e+00,3.080000000000000000e+02
3.100964962925208965e+02,5.835674754218125599e+02,7.612778583657782292e+02,8.034499729084709543e+02,6.181025363375811139e+02,5.842366515354406147e+02,1.819967519300029380e+03,6.450751170245002868e+02,9.484992027282714844e+00,-5.736890435218811035e-01,-1.147378087043762207e+00,3.090000000000000000e+02
4.080289175985672045e+02,5.231814852721381612e+02,6.819082511554443045e+02,7.520473015086827218e+02,5.549577529214002425e+02,5.040438460956866038e+02,1.920076600302825682e+03,5.645615307625357673e+02,9.484992027282714844e+00,-5.736890435218811035e-01,-1.147378087043762207e+00,3.100000000000000000e+02
3.556468693429633277e+02,6.476306858584139263e+02,6.935948371586928261e+02,7.005056234557087009e+02,5.596748838738240011e+02,5.793341347376008343e+02,1.808457205799153598e+03,6.360610024605848594e+02,9.484992027282714844e+00,-5.736890435218811035e-01,-1.147378087043762207e+00,3.110000000000000000e+02
2.290819777036376763e+02,7.811955214875124511e+02,7.743840869343184750e+02,7.120597593575730571e+02,6.214882113634303096e+02,6.999060124077004730e+02,1.613154420554870740e+03,7.561254494667809922e+02,9.446745872497558594e+00,-7.649186849594116211e-01,-1.147378087043762207e+00,3.120000000000000000e+02
2.062849562063929625e+02,7.363844968754583533e+02,8.067061713603179669e+02,7.634319458420504816e+02,6.511297467016302107e+02,6.930696302481846942e+02,1.578587984375866654e+03,7.539730215615109046e+02,9.446745872497558594e+00,-7.649186849594116211e-01,-1.147378087043762207e+00,3.130000000000000000e+02
3.205628780274419114e+02,5.729402093271182821e+02,7.405431390594494587e+02,7.774427551766057150e+02,6.038272357090609148e+02,5.628365346645587124e+02,1.726788288795476547e+03,6.275635619569802657e+02,9.446745872497558594e+00,-7.649186849594116211e-01,-1.147378087043762207e+00,3.140000000000000000e+02
4.148617898999218596e+02,5.136317920531437267e+02,6.622322280666448933e+02,7.292918185451526369e+02,5.404551024267711909e+02,4.840108099932003825e+02,1.827597099733095092e+03,5.467338012559084746e+02,9.446745872497558594e+00,-7.649186849594116211e-01,-1.147378087043762207e+00,3.150000000000000000e+02
3.593791905152538675e+02,6.359567344406550546e+02,6.743917591677382006e+02,6.797380078904534457e+02,5.437163572493409447e+02,5.598418632855391479e+02,1.716816788314303267e+03,6.179710778646112885e+02,9.446745872497558594e+00,-7.649186849594116211e-01,-1.147378087043762207e+00,3.160000000000000000e+02
2.314145323217962869e+02,7.653867657351383968e+02,7.547163700116361724e+02,6.905872833683788485e+02,6.050503287884530437e+02,6.792144888801703928e+02,1.523005715195053199e+03,7.367236121099886077e+02,9.446745872497558594e+00,-7.649186849594116211e-01,-1.147378087043762207e+00,3.170000000000000000e+02
2.090205641752763768e+02,7.160624373169157479e+02,7.877357202551575028e+02,7.398857015744688397e+02,6.369065481784564327e+02,6.707689370863736258e+02,1.489844982797701959e+03,7.325436813343840186e+02,9.446745872497558594e+00,-7.649186849594116211e-01,-1.147378087043762207e+00,3.180000000000000000e+02
3.253623942644117051e+02,5.474036107512547460e+02,7.241474816363333957e+02,7.528678540924920526e+02,5.930482785014464753e+02,5.399048434048490890e+02,1.639542394144453283e+03,6.054580007271106297e+02,9.446745872497558594e+00,-7.649186849594116211e-01,-1.147378087043762207e+00,3.190000000000000000e+02
4.230116062566085020e+02,4.835242396285175346e+02,6.482990056144517439e+02,7.047572835208011384e+02,5.318378607411759731e+02,4.608290904348104959e+02,1.742296511332038790e+03,5.256463248624277185e+02,9.446745872497558594e+00,-7.649186849594116211e-01,-1.147378087043762207e+00,3.200000000000000000e+02
3.711690063802816439e+02,6.052176241950328404e+02,6.613942777556076180e+02,6.544313743968523340e+02,5.354596299642507802e+02,5.359557700922268850e+02,1.633873782856586331e+03,5.980257407579119899e+02,9.446745872497558594e+00,-7.649186849594116211e-01,-1.147378087043762207e+00,3.210000000000000000e+02
2.460652836320368806e+02,7.379263135437540768e+02,7.411099447825727111e+02,6.638706693746971723e+02,5.958613204929170024e+02,6.555395654818676121e+02,1.442246363255842880e+03,7.178837493145947519e+02,9.446745872497558594e+00,-7.649186849594116211e-01,-1.147378087043762207e+00,3.220000000000000000e+02
2.252347211873493507e+02,6.921536494118736300e+02,7.719334884895361029e+02,7.134013291954033775e+02,6.253071503238606965e+02,6.503759469170472585e+02,1.410379029015661217e+03,7.161349840044858865e+02,9.446745872497558594e+00,-7.649186849594116211e-01,-1.147378087043762207e+00,3.230000000000000000e+02
3.415026681508388720e+02,5.258005955511798675e+02,7.053625547007723071e+02,7.284164916598638229e+02,5.780894982899008028e+02,5.255688987358553277e+02,1.560400247386700357e+03,5.927004459249219508e+02,9.446745872497558594e+00,-7.649186849594116211e-01,-1.147378087043762207e+00,3.240000000000000000e+02
4.371396694055147236e+02,4.644730473367017112e+02,6.273119224369183939e+02,6.819688313943661342e+02,5.144720188175233488e+02,4.526110291177683393e+02,1.663615274489224248e+03,5.159040365789587668e+02,9.446745872497558594e+00,-7.649186849594116211e-01,-1.147378087043762207e+00,3.250000000000000000e+02
3.819272120864479803e+02,5.892626296289890888e+02,6.386213322707153566e+02,6.328295511889409681e+02,5.171487919857972884e+02,5.318522389671197743e+02,1.557494726554730732e+03,5.894537085488664161e+02,9.446745872497558594e+00,-7.649186849594116211e-01,-1.147378087043762207e+00,3.260000000000000000e+02
2.535934906521433732e+02,7.247201550222926016e+02,7.157464885824447265e+02,6.449034104985694285e+02,5.764427427476402954e+02,6.535467384477378801e+02,1.370559500432107598e+03,7.088432052023235883e+02,9.446745872497558594e+00,-7.649186849594116211e-01,-1.147378087043762207e+00,3.270000000000000000e+02
2.306205817863956327e+02,6.822147835157702502e+02,7.448813328303585877e+02,6.978044903186710144e+02,6.041852095896101673e+02,6.490739903611392947e+02,1.344213570981373778e+03,7.055803262215085851e+02,9.446745872497558594e+00,-7.649186849594116211e-01,-1.147378087043762207e+00,3.280000000000000000e+02
3.456149030391097767e+02,5.204201993714668788e+02,6.799820462588650116e+02,7.140219298336560314e+02,5.563644363100647752e+02,5.234426594096294139e+02,1.498434732595284004e+03,5.800204743044960196e+02,9.446745872497558594e+00,-7.649186849594116211e-01,-1.147378087043762207e+00,3.290000000000000000e+02
4.407084532181033865e+02,4.626532081368823128e+02,6.055369472379752551e+02,6.667782254619160085e+02,4.940222660538529453e+02,4.480098549887115951e+02,1.604046049562472035e+03,5.007770356327891932e+02,9.446745872497558594e+00,-7.649186849594116211e-01,-1.147378087043762207e+00,3.300000000000000000e+02
3.861919316075945972e+02,5.877779377055376244e+02,6.196717162687746168e+02,6.177167463881050935e+02,4.989953490728039469e+02,5.236575414666185679e+02,1.499491925371185062e+03,5.717251603111362783e+02,9.446745872497558594e+00,-7.649186849594116211e-01,-1.147378087043762207e+00,3.310000000000000000e+02
2.596627138789408491e+02,7.216827996982065088e+02,6.992198594975488959e+02,6.309464354060546611e+02,5.612172865168649878e+02,6.415817094858139171e+02,1.313616251580999233e+03,6.887777763450794737e+02,9.446745872497558594e+00,-7.649186849594116211e-01,-1.147378087043762207e+00,3.320000000000000000e+02
2.383905760583147639e+02,6.773915729523214395e+02,7.311389456960641837e+02,6.838619128194222867e+02,5.923020039664042997e+02,6.342604002583611873e+02,1.285945840362372110e+03,6.843450846181149245e+02,9.446745872497558594e+00,-7.649186849594116211e-01,-1.147378087043762207e+00,3.330000000000000000e+02
3.542523226291741594e+02,5.122893065571079205e+02,6.677059547123353695e+02,6.993149520042425138e+02,5.470299494041246362e+02,5.078427088193311647e+02,1.438155756218504393e+03,5.595703464762300428e+02,9.446745872497558594e+00,-7.649186849594116211e-01,-1.147378087043762207e+00,3.340000000000000000e+02
4.498232142954584560e+02,4.489408539806063345e+02,5.928148590275050083e+02,6.530019862024128088e+02,4.862076302552195557e+02,4.340685372925727279e+02,1.542862182234908687e+03,4.830255664748510753e+02,9.446745872497558594e+00,-7.649186849594116211e-01,-1.147378087043762207e+00,3.350000000000000000e+02
3.956063518536539050e+02,5.686168992685597914e+02,6.065378130678473099e+02,6.063137064864240529e+02,4.934330143205115746e+02,5.129498371240333654e+02,1.439357856780217844e+03,5.577607860066200374e+02,9.446745872497558594e+00,-7.649186849594116211e-01,-1.147378087043762207e+00,3.360000000000000000e+02
2.686456630865577608e+02,6.988849095524274162e+02,6.861971568579901941e+02,6.206268329207960051e+02,5.591045765820817905e+02,6.342569749470058014e+02,1.255286045491724508e+03,6.785924601024598815e+02,9.408499717712402344e+00,-7.266727685928344727e-01,-1.109132170677185059e+00,3.370000000000000000e+02
2.463317942857393064e+02,6.516040552771155490e+02,7.174782359919227019e+02,6.724113364165386884e+02,5.924829359506729816e+02,6.290882812117270078e+02,1.230139191580834449e+03,6.769693137784997816e+02,9.408499717712402344e+00,-7.266727685928344727e-01,-1.109132170677185059e+00,3.380000000000000000e+02
3.617965937105836929e+02,4.840504346122834249e+02,6.532863698179207859e+02,6.857258956066289102e+02,5.466289745842477714e+02,5.022339790359364997e+02,1.384196075401021517e+03,5.532389719715283718e+02,9.408499717712402344e+00,-7.266727685928344727e-01,-1.109132170677185059e+00,3.390000000000000000e+02
4.584513652409077622e+02,4.206057196962865419e+02,5.788213494962255936e+02,6.368559331440810638e+02,4.830230301986302948e+02,4.250231190738959413e+02,1.490305635711032664e+03,4.752933198444625305e+02,9.408499717712402344e+00,-7.266727685928344727e-01,-1.109132170677185059e+00,3.400000000000000000e+02
4.064422053846647032e+02,5.418660229832130426e+02,5.929921888118078641e+02,5.872476467617962044e+02,4.860817293343134224e+02,4.990964601119121653e+02,1.387500877692102222e+03,5.463334242640230514e+02,9.408499717712402344e+00,-7.266727685928344727e-01,-1.109132170677185059e+00,3.410000000000000000e+02
2.820273001003151876e+02,6.724706630157888867e+02,6.720438703289037221e+02,5.994084501378747518e+02,5.468248577523736458e+02,6.167485733455869195e+02,1.203644440054573352e+03,6.630551523454778362e+02,9.408499717712402344e+00,-7.266727685928344727e-01,-1.109132170677185059e+00,3.420000000000000000e+02
2.616035174408316379e+02,6.242825580774842820e+02,7.030917256139109668e+02,6.510850325607243576e+02,5.766921214339672588e+02,6.104922374607813254e+02,1.179110820003668778e+03,6.595361821476872137e+02,9.408499717712402344e+00,-7.266727685928344727e-01,-1.109132170677185059e+00,3.430000000000000000e+02
3.771181963549752254e+02,4.570379121771184145e+02,6.395490003290506138e+02,6.660534591348186950e+02,5.307242867674212903e+02,4.851453356807796808e+02,1.334193455906090094e+03,5.369326755807524023e+02,9.408499717712402344e+00,-7.266727685928344727e-01,-1.109132170677185059e+00,3.440000000000000000e+02
4.720956921112228883e+02,3.950525790149949898e+02,5.649730965575727168e+02,6.193217127808165969e+02,4.691460922556543665e+02,4.107724918837411678e+02,1.440707891875208588e+03,4.614887150475879025e+02,9.408499717712402344e+00,-7.266727685928344727e-01,-1.109132170677185059e+00,3.450000000000000000e+02
4.188136186549672857e+02,5.172265446354285814e+02,5.784112173556277412e+02,5.714769838387437630e+02,4.734857324936638179e+02,4.862300691319760517e+02,1.337491318651664187e+03,5.344560294009570498e+02,9.408499717712402344e+00,-7.266727685928344727e-01,-1.109132170677185059e+00,3.460000000000000000e+02
2.952163508256053319e+02,6.491231466760873445e+02,6.576807857016538037e+02,5.848459128354515997e+02,5.336195690663698770e+02,6.018224314036560827e+02,1.153572880724590505e+03,6.519044317827283521e+02,9.408499717712402344e+00,-7.266727685928344727e-01,-1.109132170677185059e+00,3.470000000000000000e+02
2.767981790467456449e+02,6.044423995193283190e+02,6.885260386380723503e+02,6.373443726469267858e+02,5.613657211306272075e+02,5.919059166723855014e+02,1.129962033683099435e+03,6.480017980927368626e+02,9.408499717712402344e+00,-7.266727685928344727e-01,-1.109132170677185059e+00,3.480000000000000000e+02
3.937760892482619965e+02,4.417223263435662375e+02,6.221090676038111269e+02,6.529974656298654736e+02,5.122872464221400151e+02,4.648998813414291362e+02,1.286251003511992167e+03,5.240278121334995376e+02,9.408499717712402344e+00,-7.266727685928344727e-01,-1.109132170677185059e+00,3.490000000000000000e+02
4.892955367891190690e+02,3.827343514342428534e+02,5.440798021231858002e+02,6.068590527358610416e+02,4.477489520256385731e+02,3.916547707605423057e+02,1.393918071815074654e+03,4.467441589557929547e+02,9.408499717712402344e+00,-7.266727685928344727e-01,-1.109132170677185059e+00,3.500000000000000000e+02
4.355914860552729806e+02,5.057459248120539996e+02,5.570521188653983700e+02,5.595585732641411596e+02,4.506255220715502219e+02,4.697400014470149472e+02,1.292426763693598332e+03,5.182952536974808027e+02,9.408499717712402344e+00,-7.266727685928344727e-01,-1.109132170677185059e+00,3.510000000000000000e+02
3.100944342741640867e+02,6.368219183220207924e+02,6.379483027845963079e+02,5.738737304451715318e+02,5.107356877004203852e+02,5.893543861607358849e+02,1.110957983928848989e+03,6.351803480987437069e+02,9.408499717712402344e+00,-7.266727685928344727e-01,-1.109132170677185059e+00,3.520000000000000000e+02
2.891306915805762401e+02,5.900568933500726416e+02,6.695658045008785848e+02,6.280705251646577381e+02,5.391965474799326330e+02,5.842805658125289483e+02,1.089339508393604774e+03,6.311457179804820044e+02,9.408499717712402344e+00,-7.266727685928344727e-01,-1.109132170677185059e+00,3.530000000000000000e+02
4.051232042202827870e+02,4.247609536274067068e+02,6.033428063090977957e+02,6.455898750092892442e+02,4.918486901702854084e+02,4.597752887170754548e+02,1.246463055686748703e+03,5.068364987224485958e+02,9.408499717712402344e+00,-7.266727685928344727e-01,-1.109132170677185059e+00,3.540000000000000000e+02
5.015890148890539422e+02,3.630527599532142631e+02,5.262912658789500711e+02,6.005581743207585532e+02,4.300260970187810017e+02,3.849761199276072148e+02,1.354787071213257150e+03,4.291238286080260877e+02,9.408499717712402344e+00,-7.266727685928344727e-01,-1.109132170677185059e+00,3.550000000000000000e+02
4.487496919858022011e+02,4.827368960342028004e+02,5.395907859296712559e+02,5.536318377158604562e+02,4.351417136957679759e+02,4.602408585143530217e+02,1.254827269181841984e+03,5.011492586118583858e+02,9.408499717712402344e+00,-7.266727685928344727e-01,-1.109132170677185059e+00,3.560000000000000000e+02
3.230149786579713691e+02,6.112550933028942381e+02,6.187302272154047387e+02,5.683506896876133396e+02,4.965421938010549638e+02,5.784180795646570914e+02,1.075369581075996393e+03,6.201044450447225245e+02,9.408499717712402344e+00,-7.266727685928344727e-01,-1.109132170677185059e+00,3.570000000000000000e+02
3.014418623788151308e+02,5.659422577391414961e+02,6.485275788341677980e+02,6.229916232620016672e+02,5.270815673882389092e+02,5.722707759214827092e+02,1.055402245443256106e+03,6.190197216796004795e+02,9.408499717712402344e+00,-7.266727685928344727e-01,-1.109132170677185059e+00,3.580000000000000000e+02
4.162424214621714782e+02,4.059666327787890623e+02,5.829000935939766350e+02,6.399908032549064956e+02,4.833712412226523156e+02,4.462404891913611209e+02,1.213741484970290912e+03,4.971686762986864778e+02,9.408499717712402344e+00,-7.266727685928344727e-01,-1.109132170677185059e+00,3.590000000000000000e+02
5.101849135509983171e+02,3.486465151410084218e+02,5.082822681397374254e+02,5.930008307956304634e+02,4.249202685297714197e+02,3.708912217342040094e+02,1.322896996449853759e+03,4.208429685950104613e+02,9.408499717712402344e+00,-7.266727685928344727e-01,-1.109132170677185059e+00,3.600000000000000000e+02
4.551562010474299314e+02,4.689124622304589138e+02,5.243780909127963241e+02,5.436801666896280949e+02,4.318873894949574606e+02,4.462001985233000596e+02,1.223033180011960212e+03,4.931844751556564006e+02,9.408499717712402344e+00,-7.266727685928344727e-01,-1.109132170677185059e+00,3.610000000000000000e+02
3.301354332146875095e+02,5.965308352265783469e+02,6.069537386731826700e+02,5.568019978294396424e+02,4.944850163470546249e+02,5.626525796263522352e+02,1.043109941687464016e+03,6.111383748808111704e+02,9.408499717712402344e+00,-7.266727685928344727e-01,-1.109132170677185059e+00,3.620000000000000000e+02
3.115744698033086024e+02,5.511661037438061612e+02,6.408337558739658562e+02,6.107303477158857277e+02,5.255911366426880704e+02,5.538909208246332128e+02,1.023105166782028391e+03,6.079419924856847501e+02,9.408499717712402344e+00,-7.266727685928344727e-01,-1.109132170677185059e+00,3.630000000000000000e+02
4.290382175682170782e+02,3.910923824435049028e+02,5.776753283706930233e+02,6.275720729613967706e+02,4.800504981257399777e+02,4.278961727193091065e+02,1.180912909408798441e+03,4.842768144406472857e+02,9.446745872497558594e+00,-6.884268522262573242e-01,-1.070886254310607910e+00,3.640000000000000000e+02
5.249388055242598057e+02,3.331686064145724231e+02,5.019949708742569783e+02,5.812973342701443471e+02,4.172358168631180888e+02,3.553299318031931762e+02,1.290530550805939129e+03,4.076615592236521479e+02,9.446745872497558594e+00,-6.884268522262573242e-01,-1.070886254310607910e+00,3.650000000000000000e+02
4.721788471780309919e+02,4.539548944680718705e+02,5.146363965214986820e+02,5.334564155577099882e+02,4.198101059120745049e+02,4.331308823140570894e+02,1.191989664066262776e+03,4.807894679455130245e+02,9.446745872497558594e+00,-6.884268522262573242e-01,-1.070886254310607910e+00,3.660000000000000000e+02
3.489907391979359090e+02,5.833564495573918975e+02,5.936409203723305836e+02,5.473160887164121959e+02,4.796370764567036531e+02,5.510922970606115996e+02,1.013979476195308962e+03,5.994313160200836137e+02,9.446745872497558594e+00,-6.884268522262573242e-01,-1.070886254310607910e+00,3.670000000000000000e+02
3.305228920918307267e+02,5.388540899721447204e+02,6.243931198335776571e+02,6.003857326585202827e+02,5.089735228970457683e+02,5.442468785997116356e+02,9.955341114609618671e+02,5.967108392970039858e+02,9.446745872497558594e+00,-6.884268522262573242e-01,-1.070886254310607910e+00,3.680000000000000000e+02
4.471035408988391282e+02,3.780549642357909761e+02,5.582264559185714461e+02,6.164076291342644254e+02,4.623984111578247393e+02,4.202423708433780121e+02,1.155301627651249873e+03,4.740280472475424176e+02,9.446745872497558594e+00,-6.884268522262573242e-01,-1.070886254310607910e+00,3.690000000000000000e+02
5.421570138253300684e+02,3.199094889492807852e+02,4.802569540601834888e+02,5.711922501391090918e+02,4.002219505899338401e+02,3.489599600727160578e+02,1.265815470883302623e+03,3.987969976868625963e+02,9.446745872497558594e+00,-6.884268522262573242e-01,-1.070886254310607910e+00,3.700000000000000000e+02
4.879347190453554504e+02,4.424265034534109873e+02,4.919192767297936371e+02,5.255437442642505630e+02,4.047585605499916710e+02,4.284221314432143117e+02,1.167854442267911509e+03,4.723970386256478378e+02,9.446745872497558594e+00,-6.884268522262573242e-01,-1.070886254310607910e+00,3.710000000000000000e+02
3.621901411920844112e+02,5.741610252993887116e+02,5.708053666080595576e+02,5.411710391928281751e+02,4.657142861452230136e+02,5.487212627786066150e+02,9.904894380194891710e+02,5.898716263527967385e+02,9.446745872497558594e+00,-6.884268522262573242e-01,-1.070886254310607910e+00,3.720000000000000000e+02
3.413930723969824612e+02,5.304639580589355319e+02,6.023011047455220250e+02,5.959952959833317436e+02,4.941105362900489126e+02,5.427871237283543451e+02,9.727571761873259675e+02,5.856291124319541268e+02,9.446745872497558594e+00,-6.884268522262573242e-01,-1.070886254310607910e+00,3.730000000000000000e+02
4.570371859161969041e+02,3.689506903461515321e+02,5.387409048633271595e+02,6.145209966786278528e+02,4.454592876855240320e+02,4.171669162694161059e+02,1.133260129171030712e+03,4.626966465652876650e+02,9.446745872497558594e+00,-6.884268522262573242e-01,-1.070886254310607910e+00,3.740000000000000000e+02
5.522627046095149126e+02,3.105274482584281941e+02,4.648309217866044492e+02,5.709989956787976553e+02,3.812200810625727172e+02,3.431336156067991396e+02,1.244602362777382950e+03,3.877799874807678862e+02,9.446745872497558594e+00,-6.884268522262573242e-01,-1.070886254310607910e+00,3.750000000000000000e+02
4.990625824821036076e+02,4.339242620782752056e+02,4.795348740489644115e+02,5.242725926730054198e+02,3.836786924781554262e+02,4.199682437884257524e+02,1.147878340855415445e+03,4.603297715192966280e+02,9.446745872497558594e+00,-6.884268522262573242e-01,-1.070886254310607910e+00,3.760000000000000000e+02
3.752069612216146197e+02,5.657435152271864354e+02,5.590741520696246880e+02,5.369477622707636328e+02,4.425260943608445814e+02,5.384251538588214316e+02,9.721013977998227347e+02,5.759088093531026971e+02,9.446745872497558594e+00,-6.884268522262573242e-01,-1.070886254310607910e+00,3.770000000000000000e+02
3.559187321657227585e+02,5.200488550409063464e+02,5.898542224561679177e+02,5.894096241362858564e+02,4.700894344692787854e+02,5.328475101408330374e+02,9.550430049323913408e+02,5.717018788059067447e+02,9.446745872497558594e+00,-6.884268522262573242e-01,-1.070886254310607910e+00,3.780000000000000000e+02
4.709111411938793026e+02,3.564906414714278071e+02,5.248829378552181879e+02,6.068339305113549926e+02,4.235608655844553141e+02,4.100651888679130934e+02,1.114006626230911934e+03,4.516912922350820736e+02,9.446745872497558594e+00,-6.884268522262573242e-01,-1.070886254310607910e+00,3.790000000000000000e+02
5.634472208119259449e+02,2.976218459379670094e+02,4.483891357286338462e+02,5.625902927374627325e+02,3.644947058454708895e+02,3.389207106007597758e+02,1.222478819926938741e+03,3.806435113262632512e+02,9.446745872497558594e+00,-6.884268522262573242e-01,-1.070886254310607910e+00,3.800000000000000000e+02
5.073782270489173243e+02,4.198405428868427407e+02,4.604721573897113558e+02,5.154457233840657864e+02,3.734230347555567278e+02,4.165705068787428900e+02,1.123901108901380212e+03,4.561527186449020519e+02,9.446745872497558594e+00,-6.884268522262573242e-01,-1.070886254310607910e+00,3.810000000000000000e+02
3.817670737730368273e+02,5.480142626927845413e+02,5.400754633522155927e+02,5.283936030756594846e+02,4.380708291142145754e+02,5.338503742578468518e+02,9.480822940313373692e+02,5.730788570889635594e+02,9.446745872497558594e+00,-6.884268522262573242e-01,-1.070886254310607910e+00,3.820000000000000000e+02
3.619311123268416850e+02,4.998687475781625835e+02,5.743072103348604287e+02,5.809069961338827852e+02,4.698473662104297546e+02,5.249693390374159208e+02,9.317320669369364623e+02,5.676379449253290659e+02,9.446745872497558594e+00,-6.884268522262573242e-01,-1.070886254310607910e+00,3.830000000000000000e+02
4.775913308429298922e+02,3.386387185966668767e+02,5.144719228079411550e+02,5.970277358460443793e+02,4.259200794809730724e+02,3.963189498944993829e+02,1.091737473583096289e+03,4.434535559411306167e+02,9.446745872497558594e+00,-6.884268522262573242e-01,-1.070886254310607910e+00,3.840000000000000000e+02
5.723660514225630322e+02,2.838125254363549175e+02,4.436954913230147213e+02,5.509985792621591827e+02,3.682153731796861393e+02,3.187053482544870349e+02,1.202203796901099849e+03,3.673414252601214685e+02,9.446745872497558594e+00,-6.884268522262573242e-01,-1.070886254310607910e+00,3.850000000000000000e+02
5.202116980609280290e+02,4.071454449241937255e+02,4.614375744046410546e+02,5.031327307900501182e+02,3.776088286329177208e+02,3.918682141187018715e+02,1.106204655364039354e+03,4.393274578567798017e+02,9.446745872497558594e+00,-6.884268522262573242e-01,-1.070886254310607910e+00,3.860000000000000000e+02
3.995366507941944292e+02,5.345092350450795493e+02,5.443013331096808542e+02,5.156735924285967485e+02,4.417467404528360930e+02,5.063449569587028236e+02,9.322205870863981545e+02,5.543971259746467695e+02,9.446745872497558594e+00,-6.884268522262573242e-01,-1.070886254310607910e+00,3.870000000000000000e+02
3.841279929872980574e+02,4.858427216174895875e+02,5.773545492029370507e+02,5.662765761195551022e+02,4.720654760893812636e+02,4.959284829103344237e+02,9.167359583658981137e+02,5.484830206926126266e+02,9.446745872497558594e+00,-6.884268522262573242e-01,-1.070886254310607910e+00,3.880000000000000000e+02
5.024268370047648204e+02,3.215183714962258819e+02,5.133296789930609521e+02,5.798821593142929487e+02,4.266283139500010293e+02,3.694072772674844600e+02,1.077485698569886154e+03,4.266561958988604601e+02,9.446745872497558594e+00,-6.884268522262573242e-01,-1.070886254310607910e+00,3.890000000000000000e+02
5.977965963575552450e+02,2.586568405909856665e+02,4.381163685627980158e+02,5.336275049775867956e+02,3.680222780200201669e+02,2.979456766402145149e+02,1.188692589181155199e+03,3.559462042006343836e+02,9.446745872497558594e+00,-6.884268522262573242e-01,-1.070886254310607910e+00,3.900000000000000000e+02
5.431357403602887644e+02,3.739896073826676002e+02,4.519686583063958096e+02,4.882984171319621964e+02,3.765053198528985376e+02,3.766444340814341558e+02,1.090780250203766627e+03,4.332214179050570237e+02,9.446745872497558594e+00,-6.884268522262573242e-01,-1.070886254310607910e+00,3.910000000000000000e+02
4.178328337952843867e+02,4.992838500996876974e+02,5.316053447371887160e+02,5.036374513754271902e+02,4.393847347455230192e+02,4.931879608558228938e+02,9.152645822277991101e+02,5.510683994496212108e+02,9.446745872497558594e+00,-6.884268522262573242e-01,-1.070886254310607910e+00,3.920000000000000000e+02
3.960967053091444541e+02,4.536685629912826698e+02,5.634025697110264446e+02,5.562222789141014800e+02,4.697866453393799020e+02,4.850812306336447364e+02,8.995768069360929076e+02,5.473624308380385628e+02,9.446745872497558594e+00,-6.884268522262573242e-01,-1.070886254310607910e+00,3.930000000000000000e+02
5.083481647428998258e+02,2.937456920050099143e+02,5.000313278979374445e+02,5.723215426944952924e+02,4.261267510099423816e+02,3.640804075802079751e+02,1.060728251981083304e+03,4.290512521659402410e+02,9.446745872497558594e+00,-6.884268522262573242e-01,-1.070886254310607910e+00,3.940000000000000000e+02
