F3,F4,C3,C4,P3,P4,Cz,Pz,Accel_x,Accel_y,Accel_z,Sample
-6.366462912410497665e-12,4.320099833421409130e-12,-1.114131009671837091e-11,-8.185452315956354141e-12,-4.774847184307873249e-12,1.205080479849129915e-11,2.455635694786906242e-11,1.023181539494544268e-11,9.484992027282714844e+00,-5.736890435218811035e-01,-1.032640218734741211e+00,0.000000000000000000e+00
-7.736945225712588581e+02,-2.020699276030145484e+02,-5.679802807509322520e+02,-6.117807685314105584e+02,-2.053423885967492879e+02,-3.700400092403845065e+02,-9.373409806514127922e+02,-4.160417650259594211e+02,9.484992027282714844e+00,-5.736890435218811035e-01,-1.032640218734741211e+00,1.000000000000000000e+00
-1.307697437876450294e+03,-4.791587638769094610e+02,-9.996677736559793175e+02,-1.005819910988642505e+03,-5.547416301890300474e+02,-7.109841677213341882e+02,-1.414465447495447734e+03,-7.315869800219329591e+02,9.484992027282714844e+00,-5.736890435218811035e-01,-1.032640218734741211e+00,2.000000000000000000e+00
-1.514449958867401165e+03,-8.585761054723745929e+02,-1.299464481702550529e+03,-1.163972252509254531e+03,-9.525189581877523324e+02,-1.050096058708514192e+03,-1.643061511246276496e+03,-1.004500845787656317e+03,9.484992027282714844e+00,-5.736890435218811035e-01,-1.032640218734741211e+00,3.000000000000000000e+00
-1.439100876962424536e+03,-1.324864207665250660e+03,-1.591100018737373375e+03,-1.248546906237527992e+03,-1.277473155958417692e+03,-1.454935472425378521e+03,-2.052734912501993676e+03,-1.364521108874378115e+03,9.484992027282714844e+00,-5.736890435218811035e-01,-1.032640218734741211e+00,4.000000000000000000e+00
-1.288655863574908381e+03,-1.781142113183071160e+03,-1.933803571558470594e+03,-1.400261331639997252e+03,-1.580553982191474688e+03,-1.898852983193911086e+03,-2.633939318560722313e+03,-1.781856919700854633e+03,9.484992027282714844e+00,-5.736890435218811035e-01,-1.032640218734741211e+00,5.000000000000000000e+00
-1.469613463671653790e+03,-2.035501740977561894e+03,-2.208389446870492975e+03,-1.588055868055814244e+03,-1.870232525608669903e+03,-2.193136837783610645e+03,-3.318696835482533515e+03,-2.042754680284831920e+03,9.484992027282714844e+00,-5.736890435218811035e-01,-1.032640218734741211e+00,6.000000000000000000e+00
-2.106590870316774726e+03,-2.036720613192216661e+03,-2.293799991874998341e+03,-1.695443146575490800e+03,-2.025314145399459903e+03,-2.235564220964722153e+03,-4.192307533372633770e+03,-2.053747298312400289e+03,9.484992027282714844e+00,-5.736890435218811035e-01,-1.032640218734741211e+00,7.000000000000000000e+00
-2.752480771504201584e+03,-2.045661837045422544e+03,-2.285257669547144815e+03,-1.698743802785195612e+03,-2.061507954410871207e+03,-2.233661209342183611e+03,-5.091207437033102906e+03,-2.027780909584414985e+03,9.484992027282714844e+00,-5.736890435218811035e-01,-1.032640218734741211e+00,8.000000000000000000e+00
-3.108680128408358087e+03,-2.305013999790719481e+03,-2.373572025728903554e+03,-1.682578344342942273e+03,-2.162329199864169823e+03,-2.435081157406887542e+03,-5.764504000042696134e+03,-2.197141602146431069e+03,9.484992027282714844e+00,-5.736890435218811035e-01,-1.032640218734741211e+00,9.000000000000000000e+00
-3.608585492450799393e+03,-2.632445803642885039e+03,-2.552003242912103815e+03,-1.704280395726337929e+03,-2.346877128359016751e+03,-2.725804936733431987e+03,-6.491972762060439891e+03,-2.458656596521273059e+03,9.484992027282714844e+00,-5.736890435218811035e-01,-1.032640218734741211e+00,1.000000000000000000e+01
-4.468328582688291135e+03,-2.691944712652728867e+03,-2.649844840484799988e+03,-1.746668796039694598e+03,-2.455528617334108276e+03,-2.817770333509792181e+03,-7.408620409816800930e+03,-2.543972212477606263e+03,9.484992027282714844e+00,-5.736890435218811035e-01,-1.032640218734741211e+00,1.100000000000000000e+01
-5.009237561835701854e+03,-2.541032163227913770e+03,-2.615237292636045822e+03,-1.774629228902382692e+03,-2.466829774952561820e+03,-2.723755079114954697e+03,-7.846443087933350398e+03,-2.440127537768284128e+03,9.484992027282714844e+00,-5.736890435218811035e-01,-1.032640218734741211e+00,1.200000000000000000e+01
-5.037239673111965203e+03,-2.501558423666230738e+03,-2.550627612484443489e+03,-1.742356338384085120e+03,-2.474028858944329841e+03,-2.684574092281314734e+03,-7.795422079153257073e+03,-2.367751018237332119e+03,9.484992027282714844e+00,-5.736890435218811035e-01,-1.032640218734741211e+00,1.300000000000000000e+01
-5.543192419237821014e+03,-2.646752187174130540e+03,-2.533382609189349751e+03,-1.629076612720913545e+03,-2.471771413063872842e+03,-2.772371790133176546e+03,-8.392587441982603195e+03,-2.436229881628901239e+03,9.484992027282714844e+00,-5.736890435218811035e-01,-1.032640218734741211e+00,1.400000000000000000e+01
-6.722640837079441553e+03,-2.806523235424485847e+03,-2.581077146707534666e+03,-1.540748018537550706e+03,-2.481728139176535024e+03,-2.899549263560176769e+03,-9.440857203607894917e+03,-2.567360664245696171e+03,9.484992027282714844e+00,-5.736890435218811035e-01,-1.032640218734741211e+00,1.500000000000000000e+01
-7.262810350791004566e+03,-2.861833103485372249e+03,-2.662871009919624157e+03,-1.591296942023930342e+03,-2.594792210784138661e+03,-2.995867686804423101e+03,-9.434109938301884540e+03,-2.639162260677469931e+03,9.484992027282714844e+00,-5.736890435218811035e-01,-1.032640218734741211e+00,1.600000000000000000e+01
-6.897848769326159527e+03,-2.751517893998989166e+03,-2.638520232895340087e+03,-1.643018940698853612e+03,-2.663605118347141342e+03,-2.946754871630764683e+03,-9.240970590925415308e+03,-2.547831844925837686e+03,9.484992027282714844e+00,-5.736890435218811035e-01,-1.032640218734741211e+00,1.700000000000000000e+01
-7.002116920911098532e+03,-2.532099311978339301e+03,-2.438449896704972161e+03,-1.489007348378455163e+03,-2.473942339678473672e+03,-2.728080495839565174e+03,-1.095874364270830483e+04,-2.337360200692134640e+03,9.484992027282714844e+00,-5.736890435218811035e-01,-1.032640218734741211e+00,1.800000000000000000e+01
-7.631402129994574352e+03,-2.531640379581236630e+03,-2.313125836088226606e+03,-1.288995816321539905e+03,-2.310125787197246609e+03,-2.670181634948045030e+03,-1.266680064268504248e+04,-2.293899200995640058e+03,9.484992027282714844e+00,-5.736890435218811035e-01,-1.032640218734741211e+00,1.900000000000000000e+01
-7.565165252315878206e+03,-2.877340894511125953e+03,-2.474088643511134705e+03,-1.329908605887929070e+03,-2.541226653736711796e+03,-2.980585970090501178e+03,-1.142837156264833720e+04,-2.536868642910150811e+03,9.484992027282714844e+00,-5.736890435218811035e-01,-1.032640218734741211e+00,2.000000000000000000e+01
-7.708284415038662701e+03,-2.985972025482493336e+03,-2.582055843714906587e+03,-1.411330320893265935e+03,-2.720779217662044630e+03,-3.124403936509784216e+03,-1.078756752936248085e+04,-2.632892636588357163e+03,9.484992027282714844e+00,-5.736890435218811035e-01,-1.032640218734741211e+00,2.100000000000000000e+01
-9.529973696360621034e+03,-2.443717626190171359e+03,-2.265041904679906111e+03,-1.174653638620474339e+03,-2.288753628535399457e+03,-2.637939785098083121e+03,-1.503247282958439064e+04,-2.245195898289192883e+03,9.484992027282714844e+00,-5.736890435218811035e-01,-1.032640218734741211e+00,2.200000000000000000e+01
-1.007460613916642251e+04,-2.150175747599395891e+03,-2.012561493328838651e+03,-9.768989132340027481e+02,-2.015492591861284382e+03,-2.340785398236826950e+03,-1.732788554402802038e+04,-1.979602324701569842e+03,9.484992027282714844e+00,-5.736890435218811035e-01,-1.032640218734741211e+00,2.300000000000000000e+01
-4.879633224494189562e+03,-3.268611507896424428e+03,-2.630011763269033054e+03,-1.525980840480968709e+03,-3.164438860483478493e+03,-3.397654222066692910e+03,-7.150408379732878529e+03,-2.675938132156848042e+03,9.484992027282714844e+00,-5.736890435218811035e-01,-1.032640218734741211e+00,2.400000000000000000e+01
3.861295828709921352e+03,-5.212208768449518175e+03,-3.856182788110017100e+03,-2.633776177230392022e+03,-5.268972080702705171e+03,-5.304660279182748127e+03,1.097540160868995372e+04,-3.977641453640693726e+03,9.523238182067871094e+00,-5.736890435218811035e-01,-1.109132170677185059e+00,2.500000000000000000e+01
8.964201902054879611e+03,-6.214989791847264314e+03,-4.562796237813434345e+03,-3.315140395993180391e+03,-6.495129946022481818e+03,-6.344723409406119572e+03,2.112983958479863941e+04,-4.664970603464654232e+03,9.523238182067871094e+00,-5.736890435218811035e-01,-1.109132170677185059e+00,2.600000000000000000e+01
8.396476723854495503e+03,-5.843571479364676634e+03,-4.360495769800696507e+03,-3.194612577119766684e+03,-6.260779397198613879e+03,-6.028672552938018271e+03,1.873883642691796558e+04,-4.387679306174301018e+03,9.523238182067871094e+00,-5.736890435218811035e-01,-1.109132170677185059e+00,2.700000000000000000e+01
6.825130890636921322e+03,-5.352222711497752243e+03,-3.975090484349234430e+03,-2.864403336209202280e+03,-5.756408194706349605e+03,-5.527607074391666174e+03,1.438321466522390620e+04,-3.986577128727390118e+03,9.523238182067871094e+00,-5.736890435218811035e-01,-1.109132170677185059e+00,2.800000000000000000e+01
7.137197878686905824e+03,-5.542033905609609064e+03,-3.972036592034758542e+03,-2.798276861794671277e+03,-5.823368546927553325e+03,-5.650680992328825596e+03,1.488095566360400881e+04,-4.061039340562820144e+03,9.523238182067871094e+00,-5.736890435218811035e-01,-1.109132170677185059e+00,2.900000000000000000e+01
7.466480751632228930e+03,-5.848603327711392922e+03,-4.103308915623409121e+03,-2.826985104357630007e+03,-6.018868029091816425e+03,-5.922759138684137724e+03,1.585539129056298407e+04,-4.271070303615900229e+03,9.523238182067871094e+00,-5.736890435218811035e-01,-1.109132170677185059e+00,3.000000000000000000e+01
6.688772177425192240e+03,-5.692382776487629599e+03,-4.032170557165569335e+03,-2.750513571305211372e+03,-5.895603625122453195e+03,-5.809698274239292004e+03,1.385935014848315768e+04,-4.187114390794245992e+03,9.523238182067871094e+00,-5.736890435218811035e-01,-1.109132170677185059e+00,3.100000000000000000e+01
6.342184661050832801e+03,-5.354235366265216726e+03,-3.850759096871308429e+03,-2.662963350541597720e+03,-5.707082255355785492e+03,-5.531336366403802458e+03,1.197688429734341480e+04,-3.933322843739646487e+03,9.523238182067871094e+00,-5.736890435218811035e-01,-1.109132170677185059e+00,3.200000000000000000e+01
6.791895785426346265e+03,-5.256123999771260060e+03,-3.731331180108398257e+03,-2.600550668652591412e+03,-5.669493438096269529e+03,-5.428141188816896829e+03,1.189831009693795932e+04,-3.795763492121157469e+03,9.523238182067871094e+00,-5.736890435218811035e-01,-1.109132170677185059e+00,3.300000000000000000e+01
6.633438024798471815e+03,-5.352570456835138430e+03,-3.669930963042562325e+03,-2.473599825224640881e+03,-5.633646026351900218e+03,-5.464036079208967749e+03,1.130002082889492340e+04,-3.810697602404299687e+03,9.523238182067871094e+00,-5.736890435218811035e-01,-1.109132170677185059e+00,3.400000000000000000e+01
5.817885620077356180e+03,-5.422123238482005036e+03,-3.643701914834618492e+03,-2.341461527493310314e+03,-5.557426961982897410e+03,-5.501593482070408754e+03,9.727664723669015075e+03,-3.866268626431796292e+03,9.523238182067871094e+00,-5.736890435218811035e-01,-1.109132170677185059e+00,3.500000000000000000e+01
5.548637629960780032e+03,-5.357835611185808375e+03,-3.631681260881838170e+03,-2.320525118746295902e+03,-5.543356133244429657e+03,-5.477356498006496622e+03,8.948600606657577373e+03,-3.846677258475529015e+03,9.523238182067871094e+00,-5.736890435218811035e-01,-1.109132170677185059e+00,3.600000000000000000e+01
5.778633771015939601e+03,-5.156004273071659554e+03,-3.539035894975989777e+03,-2.321523095206638573e+03,-5.512355897795066994e+03,-5.335503174389430569e+03,8.463647821990358352e+03,-3.688213264974333924e+03,9.523238182067871094e+00,-5.736890435218811035e-01,-1.109132170677185059e+00,3.700000000000000000e+01
5.676474212529319630e+03,-4.960798798694452671e+03,-3.357622210453261687e+03,-2.203251984290960991e+03,-5.364235530488940640e+03,-5.146272729755850378e+03,6.930321697855511957e+03,-3.495065012593296160e+03,9.523238182067871094e+00,-5.736890435218811035e-01,-1.109132170677185059e+00,3.800000000000000000e+01
5.462232989615264160e+03,-4.968239436853698862e+03,-3.246821781722038395e+03,-2.035751296365710914e+03,-5.238062966331730422e+03,-5.108760616219484291e+03,5.579852211343414638e+03,-3.462121442191754795e+03,9.523238182067871094e+00,-5.736890435218811035e-01,-1.109132170677185059e+00,3.900000000000000000e+01
5.673999070918742291e+03,-5.105298125458677532e+03,-3.276581293686595018e+03,-1.965578361395517732e+03,-5.256183238442419679e+03,-5.222247228103887210e+03,5.397710627409563131e+03,-3.569177418724976633e+03,9.523238182067871094e+00,-5.736890435218811035e-01,-1.109132170677185059e+00,4.000000000000000000e+01
5.896845736484942790e+03,-5.072022480264241494e+03,-3.289550605715673555e+03,-1.971269160109479344e+03,-5.282177457915489867e+03,-5.227233239346083792e+03,4.629324746623407918e+03,-3.568977904413468877e+03,9.523238182067871094e+00,-5.736890435218811035e-01,-1.109132170677185059e+00,4.100000000000000000e+01
5.682958965337203153e+03,-4.808307579525708206e+03,-3.155385652132295036e+03,-1.929087012783197679e+03,-5.172559629321798639e+03,-5.015645319569199273e+03,2.683894312583309329e+03,-3.364318829470359560e+03,9.523238182067871094e+00,-5.736890435218811035e-01,-1.109132170677185059e+00,4.200000000000000000e+01
5.453149284879917104e+03,-4.606874135750545065e+03,-2.971835162121617486e+03,-1.805472149244558295e+03,-5.012625516927588251e+03,-4.809331144160923031e+03,1.666200285187344434e+03,-3.161762094520130631e+03,9.523238182067871094e+00,-5.736890435218811035e-01,-1.109132170677185059e+00,4.300000000000000000e+01
5.573405041154040191e+03,-4.664180400270862265e+03,-2.898605796424159053e+03,-1.673745978753360760e+03,-4.945508947480868301e+03,-4.809721843344672379e+03,1.603731982902062555e+03,-3.156087178447078713e+03,9.523238182067871094e+00,-5.736890435218811035e-01,-1.109132170677185059e+00,4.400000000000000000e+01
5.721510114176812749e+03,-4.798465306444572889e+03,-2.929790707979313083e+03,-1.605787326122342165e+03,-4.960461949949156406e+03,-4.910654424057837787e+03,1.420438440188158893e+02,-3.255174857395205436e+03,9.523238182067871094e+00,-5.736890435218811035e-01,-1.109132170677185059e+00,4.500000000000000000e+01
5.668502502070966329e+03,-4.733517681805154098e+03,-2.925148664705100146e+03,-1.595068912354474833e+03,-4.945668954677754300e+03,-4.878309780876146760e+03,-1.845073275688299418e+03,-3.229520000939420243e+03,9.523238182067871094e+00,-5.736890435218811035e-01,-1.109132170677185059e+00,4.600000000000000000e+01
5.611669260089534873e+03,-4.479489142551584337e+03,-2.802230172391383803e+03,-1.565388190907114677e+03,-4.841509655007656875e+03,-4.673011360906471964e+03,-1.701049675442985517e+03,-3.027596268636948480e+03,9.523238182067871094e+00,-5.736890435218811035e-01,-1.109132170677185059e+00,4.700000000000000000e+01
5.553757774531261930e+03,-4.298543240188011623e+03,-2.634268920815633464e+03,-1.461869070649736386e+03,-4.697750603560787567e+03,-4.482852121747719139e+03,-1.823370955491948735e+03,-2.832818774524712353e+03,9.523238182067871094e+00,-5.736890435218811035e-01,-1.109132170677185059e+00,4.800000000000000000e+01
5.352080487020155488e+03,-4.348197377874930680e+03,-2.552907438011298836e+03,-1.330086714610474473e+03,-4.610857620787732230e+03,-4.468895487678317295e+03,-5.639298114666233232e+03,-2.814937024341033066e+03,9.523238182067871094e+00,-5.736890435218811035e-01,-1.109132170677185059e+00,4.900000000000000000e+01
5.377358918471925790e+03,-4.475137018808484754e+03,-2.575396825157015428e+03,-1.260665421916751029e+03,-4.605008724435839213e+03,-4.555030956456423155e+03,-7.671171523351949872e+03,-2.904679597221944277e+03,9.523238182067871094e+00,-5.736890435218811035e-01,-1.109132170677185059e+00,5.000000000000000000e+01
6.118291398648297218e+03,-4.421010274604185724e+03,-2.576851323106148357e+03,-1.260111804984782793e+03,-4.593453775741000754e+03,-4.529687620113856610e+03,6.251397525906077135e+02,-2.887018983234185271e+03,9.523238182067871094e+00,-5.736890435218811035e-01,-1.109132170677185059e+00,5.100000000000000000e+01
7.185282996303159052e+03,-4.171494051470379418e+03,-2.457715794798184561e+03,-1.237468361946733921e+03,-4.491988065156962875e+03,-4.332254306748798626e+03,1.540574496970598375e+04,-2.694615928037652338e+03,9.484992027282714844e+00,-5.736890435218811035e-01,-1.109132170677185059e+00,5.200000000000000000e+01
7.703118982855915419e+03,-3.979954793721851729e+03,-2.284469575210807307e+03,-1.133058769234650526e+03,-4.341121588043542943e+03,-4.140010477672868547e+03,2.353354830870559090e+04,-2.503478959289469913e+03,9.484992027282714844e+00,-5.736890435218811035e-01,-1.109132170677185059e+00,5.300000000000000000e+01
7.603161316555415397e+03,-4.023279905628979122e+03,-2.201325998248393262e+03,-1.003913174553581712e+03,-4.255989738448182834e+03,-4.127910242818262304e+03,2.129903919515308371e+04,-2.492110216861271056e+03,9.484992027282714844e+00,-5.736890435218811035e-01,-1.109132170677185059e+00,5.400000000000000000e+01
7.520671276879034849e+03,-4.151444889553604298e+03,-2.226254327948509854e+03,-9.393712317193521812e+02,-4.259152095296163679e+03,-4.221112494156737739e+03,1.744577134183216913e+04,-2.590250600508616117e+03,9.484992027282714844e+00,-5.736890435218811035e-01,-1.109132170677185059e+00,5.500000000000000000e+01
7.651395952286443389e+03,-4.098137480441397202e+03,-2.229250346928699400e+03,-9.398237637176653152e+02,-4.253701237943021624e+03,-4.201815125019569678e+03,1.778404913706595107e+04,-2.579113858120382702e+03,9.484992027282714844e+00,-5.736890435218811035e-01,-1.109132170677185059e+00,5.600000000000000000e+01
7.612010710471739003e+03,-3.847907302118318967e+03,-2.112566472947720740e+03,-9.171709741948168357e+02,-4.156548187162522481e+03,-4.008458410504435051e+03,1.885963446221594495e+04,-2.392918113164934311e+03,9.484992027282714844e+00,-5.736890435218811035e-01,-1.109132170677185059e+00,5.700000000000000000e+01
7.355499900545257333e+03,-3.656348305815180538e+03,-1.944640156636223765e+03,-8.167898467793522741e+02,-4.011459608066965757e+03,-3.820463232200875609e+03,1.758929429440627791e+04,-2.207903671484422830e+03,9.484992027282714844e+00,-5.736890435218811035e-01,-1.109132170677185059e+00,5.800000000000000000e+01
7.283077458502784793e+03,-3.695143080215285863e+03,-1.864376547749997371e+03,-6.926212839765526041e+02,-3.927879672484329149e+03,-3.811715165549087487e+03,1.605974754776223926e+04,-2.198698870724308108e+03,9.484992027282714844e+00,-5.736890435218811035e-01,-1.109132170677185059e+00,5.900000000000000000e+01
7.467552702545278407e+03,-3.814335604545137357e+03,-1.889559926033618922e+03,-6.330079640985009064e+02,-3.930502857819255496e+03,-3.910241856541706056e+03,1.572151035270431930e+04,-2.298509824927693899e+03,9.484992027282714844e+00,-5.736890435218811035e-01,-1.109132170677185059e+00,6.000000000000000000e+01
7.537843481627585788e+03,-3.751819216473732922e+03,-1.893311079732507551e+03,-6.394141372032449908e+02,-3.925788066996522957e+03,-3.896013806424176892e+03,1.519739729387504121e+04,-2.291636988841655693e+03,9.484992027282714844e+00,-5.736890435218811035e-01,-1.109132170677185059e+00,6.100000000000000000e+01
7.346401335659288634e+03,-3.497793105305149311e+03,-1.780180607106831758e+03,-6.238733414004195765e+02,-3.830890312343067308e+03,-3.704261128670072139e+03,1.423114930102289691e+04,-2.109963907539425691e+03,9.484992027282714844e+00,-5.736890435218811035e-01,-1.109132170677185059e+00,6.200000000000000000e+01
7.158649538872373341e+03,-3.308826941289831666e+03,-1.619021478468407622e+03,-5.289897163349837683e+02,-3.687781254716235253e+03,-3.515285995316708977e+03,1.387731055680242571e+04,-1.926410170695011402e+03,9.484992027282714844e+00,-5.736890435218811035e-01,-1.109132170677185059e+00,6.300000000000000000e+01
7.176762454749564313e+03,-3.354010454421946633e+03,-1.548422221862177594e+03,-4.068807747626087803e+02,-3.605069520916993042e+03,-3.504129508927439474e+03,1.354687039799742524e+04,-1.916263520139383672e+03,9.484992027282714844e+00,-5.736890435218811035e-01,-1.109132170677185059e+00,6.400000000000000000e+01
7.290668620280759569e+03,-3.483308934049891832e+03,-1.584271766879267034e+03,-3.479745211795952855e+02,-3.607570054449138752e+03,-3.597469183499298197e+03,1.222677662695350227e+04,-2.014683047351523328e+03,9.484992027282714844e+00,-5.736890435218811035e-01,-1.109132170677185059e+00,6.500000000000000000e+01
7.299682421924460868e+03,-3.434599434195261438e+03,-1.596467751128526743e+03,-3.565300538942783533e+02,-3.602063855875356694e+03,-3.576490797489832403e+03,1.098397504642018066e+04,-2.006120366690831361e+03,9.484992027282714844e+00,-5.736890435218811035e-01,-1.109132170677185059e+00,6.600000000000000000e+01
7.154389996743291704e+03,-3.191891034429830142e+03,-1.488058539583222682e+03,-3.450048161788013203e+02,-3.506752218087437541e+03,-3.381114681448549163e+03,1.093198997850648266e+04,-1.822921996244446746e+03,9.484992027282714844e+00,-5.736890435218811035e-01,-1.109132170677185059e+00,6.700000000000000000e+01
6.983018038469103885e+03,-3.005464042909573436e+03,-1.328718837629055997e+03,-2.558086163663488151e+02,-3.364588376747478378e+03,-3.192110172709244580e+03,1.087867862365625660e+04,-1.639377733130480465e+03,9.484992027282714844e+00,-5.736890435218811035e-01,-1.109132170677185059e+00,6.800000000000000000e+01
6.949983747648189819e+03,-3.048154038117929304e+03,-1.257951861311164066e+03,-1.412998208860981322e+02,-3.283364631416485736e+03,-3.179704787975121235e+03,9.644718462644525061e+03,-1.629905482654006846e+03,9.484992027282714844e+00,-5.736890435218811035e-01,-1.109132170677185059e+00,6.900000000000000000e+01
7.051082469178589236e+03,-3.178500029225474918e+03,-1.293098735305164610e+03,-9.032836820576721948e+01,-3.286501710432922209e+03,-3.269667745914338866e+03,8.293062079062550765e+03,-1.727494444376925003e+03,9.484992027282714844e+00,-5.736890435218811035e-01,-1.109132170677185059e+00,7.000000000000000000e+01
7.090393372092092250e+03,-3.135552191557697370e+03,-1.307381924837581209e+03,-1.042301121172672538e+02,-3.281565306275644616e+03,-3.247958457442185136e+03,7.872092375166881538e+03,-1.717837869013449563e+03,9.484992027282714844e+00,-5.736890435218811035e-01,-1.109132170677185059e+00,7.100000000000000000e+01
6.943252136358457392e+03,-2.898180650494083238e+03,-1.205747020477457227e+03,-9.507231507835967932e+01,-3.188754693267066614e+03,-3.055467694044275959e+03,7.539224788037335202e+03,-1.536596195654359235e+03,9.484992027282714844e+00,-5.736890435218811035e-01,-1.109132170677185059e+00,7.200000000000000000e+01
6.749794947164711630e+03,-2.713872931810722093e+03,-1.054836887052460497e+03,-7.401074909393173584e+00,-3.050780570245769923e+03,-2.868194917133764193e+03,6.671688471056207163e+03,-1.357459072909856786e+03,9.484992027282714844e+00,-5.736890435218811035e-01,-1.109132170677185059e+00,7.300000000000000000e+01
6.720603137744460582e+03,-2.755495595839670386e+03,-9.898835175801677906e+02,1.056288318212509694e+02,-2.973327477705196088e+03,-2.855568605162092808e+03,5.987882894998380834e+03,-1.351477880521885254e+03,9.484992027282714844e+00,-5.736890435218811035e-01,-1.109132170677185059e+00,7.400000000000000000e+01
6.831911376048478814e+03,-2.881383613933512606e+03,-1.028406707292497231e+03,1.556335375826097334e+02,-2.979593295282269537e+03,-2.948839272331391385e+03,5.376254633301132344e+03,-1.452387179493234726e+03,9.484992027282714844e+00,-5.736890435218811035e-01,-1.109132170677185059e+00,7.500000000000000000e+01
6.862807452011667010e+03,-2.832355273568177381e+03,-1.046473490074347865e+03,1.395650886591761264e+02,-2.978912426219701956e+03,-2.936150915600555891e+03,3.989397944193148760e+03,-1.449938494160124264e+03,9.484992027282714844e+00,-5.736890435218811035e-01,-1.109132170677185059e+00,7.600000000000000000e+01
6.708694718964339700e+03,-2.591662983019941748e+03,-9.488219154108633120e+02,1.426692802702582412e+02,-2.891195858269956716e+03,-2.753768144875556118e+03,2.965920014776057542e+03,-1.279308499875626694e+03,9.484992027282714844e+00,-5.736890435218811035e-01,-1.109132170677185059e+00,7.700000000000000000e+01
6.521502459198403812e+03,-2.408758502019898060e+03,-7.991332371106568644e+02,2.212046034635040996e+02,-2.756352527066324910e+03,-2.573790158040559163e+03,3.613580581545799760e+03,-1.108736869368286534e+03,9.484992027282714844e+00,-5.736890435218811035e-01,-1.109132170677185059e+00,7.800000000000000000e+01
6.494583110466027392e+03,-2.454443245089817992e+03,-7.318709214164869081e+02,3.255765007890431662e+02,-2.679218987588960772e+03,-2.566216673542551689e+03,3.466193830999503007e+03,-1.106904376751756672e+03,9.484992027282714844e+00,-5.736890435218811035e-01,-1.109132170677185059e+00,7.900000000000000000e+01
6.599165619482375405e+03,-2.585143140078481792e+03,-7.668453804235437019e+02,3.691262696545186373e+02,-2.685349667673200202e+03,-2.663244397154951457e+03,2.235444270598964067e+02,-1.210503421707888037e+03,9.484992027282714844e+00,-5.736890435218811035e-01,-1.109132170677185059e+00,8.000000000000000000e+01
6.628782014783288105e+03,-2.541585095852758968e+03,-7.820439944678496431e+02,3.484802589145319871e+02,-2.685582278496277922e+03,-2.652818112859531539e+03,-1.449439489092379517e+03,-1.211197974937178287e+03,9.484992027282714844e+00,-5.736890435218811035e-01,-1.109132170677185059e+00,8.100000000000000000e+01
6.479303067393598212e+03,-2.306248873701638331e+03,-6.828079147722987727e+02,3.491882271428339664e+02,-2.598951488389340739e+03,-2.472189470718275516e+03,4.769917876552102825e+03,-1.042508837077606131e+03,9.484992027282714844e+00,-5.736890435218811035e-01,-1.109132170677185059e+00,8.200000000000000000e+01
6.293627284126501763e+03,-2.126315019343129734e+03,-5.340114747385960072e+02,4.273507541009930719e+02,-2.465084423898365912e+03,-2.294792419973707183e+03,1.563443041291937152e+04,-8.722373315095587714e+02,9.484992027282714844e+00,-6.119350194931030273e-01,-1.070886254310607910e+00,8.300000000000000000e+01
6.264028056679202564e+03,-2.171242188014023668e+03,-4.716730133921305423e+02,5.308846899420541376e+02,-2.389830190312355171e+03,-2.290222945305072699e+03,2.130010811559005742e+04,-8.716698960009734947e+02,9.484992027282714844e+00,-6.119350194931030273e-01,-1.070886254310607910e+00,8.400000000000000000e+01
6.366882732464317996e+03,-2.299873483426181792e+03,-5.152666920125457182e+02,5.713505420652209068e+02,-2.398595413797394940e+03,-2.390030104899393336e+03,1.927583010720445964e+04,-9.789665341493619053e+02,9.484992027282714844e+00,-6.119350194931030273e-01,-1.070886254310607910e+00,8.500000000000000000e+01
6.394966157969661253e+03,-2.258219412625563564e+03,-5.404649693667884094e+02,5.467169650184296188e+02,-2.401131424073270409e+03,-2.382814564352886919e+03,1.632433755199373809e+04,-9.844258352125552847e+02,9.484992027282714844e+00,-6.119350194931030273e-01,-1.070886254310607910e+00,8.600000000000000000e+01
6.243084402461837271e+03,-2.030563406575642603e+03,-4.501786925774463270e+02,5.432885758533921035e+02,-2.316530687480559664e+03,-2.206209822249462832e+03,1.668908635943624540e+04,-8.203424680434252423e+02,9.484992027282714844e+00,-6.119350194931030273e-01,-1.070886254310607910e+00,8.700000000000000000e+01
6.053861168477803403e+03,-1.858417861887427080e+03,-3.077408043125910808e+02,6.153366629631891556e+02,-2.184919444652510720e+03,-2.032706137944496732e+03,1.741347473817448190e+04,-6.543724802672945771e+02,9.484992027282714844e+00,-6.119350194931030273e-01,-1.070886254310607910e+00,8.800000000000000000e+01
6.021309619092901812e+03,-1.905403165888456442e+03,-2.488725739225383222e+02,7.113003678481582028e+02,-2.111912466971501999e+03,-2.030722451425196596e+03,1.584364115140568538e+04,-6.569598725776468200e+02,9.484992027282714844e+00,-6.119350194931030273e-01,-1.070886254310607910e+00,8.900000000000000000e+01
6.122617932561321140e+03,-2.033108465786554461e+03,-2.944450143810886402e+02,7.469572487852010454e+02,-2.123468259692949687e+03,-2.131221609322868517e+03,1.390117687051314169e+04,-7.655776455408454240e+02,9.484992027282714844e+00,-6.119350194931030273e-01,-1.070886254310607910e+00,9.000000000000000000e+01
6.149724534105128441e+03,-1.993539568255470385e+03,-3.224379269253449820e+02,7.210966758638860483e+02,-2.130952606337332782e+03,-2.123174831043065751e+03,1.355545899565981199e+04,-7.721155866828626131e+02,9.484992027282714844e+00,-6.119350194931030273e-01,-1.070886254310607910e+00,9.100000000000000000e+01
5.997199336516205221e+03,-1.769997004597758860e+03,-2.370834731002723856e+02,7.155060620302128882e+02,-2.053396547726298195e+03,-1.945299346446429809e+03,1.367662708805682632e+04,-6.108200804437090028e+02,9.484992027282714844e+00,-6.119350194931030273e-01,-1.070886254310607910e+00,9.200000000000000000e+01
5.807736832610093188e+03,-1.599880988064976464e+03,-1.011299531321315044e+02,7.829548120865756573e+02,-1.928330635894775241e+03,-1.769948637568920276e+03,1.279660596565016749e+04,-4.482281760294454216e+02,9.484992027282714844e+00,-6.119350194931030273e-01,-1.070886254310607910e+00,9.300000000000000000e+01
5.773984094839900536e+03,-1.649084285200743125e+03,-4.829791567477013814e+01,8.760430445397087169e+02,-1.858619669656988663e+03,-1.764116720926238031e+03,1.146560776548569447e+04,-4.519230240385136312e+02,9.484992027282714844e+00,-6.119350194931030273e-01,-1.070886254310607910e+00,9.400000000000000000e+01
5.872060408970817662e+03,-1.783588378547366119e+03,-9.751980916781394626e+01,9.116709977630771391e+02,-1.869272030486727999e+03,-1.860223406040165173e+03,1.068662386797802719e+04,-5.592408243932059122e+02,9.484992027282714844e+00,-6.119350194931030273e-01,-1.070886254310607910e+00,9.500000000000000000e+01
5.895496019027508737e+03,-1.752412048245893402e+03,-1.271558428512848877e+02,8.839971124110979872e+02,-1.873520516979478998e+03,-1.852096423574703749e+03,1.014249820727374936e+04,-5.652749633042212736e+02,9.484992027282714844e+00,-6.119350194931030273e-01,-1.070886254310607910e+00,9.600000000000000000e+01
5.740929897445701499e+03,-1.532670225626404317e+03,-4.437893326309676922e+01,8.734526561471029709e+02,-1.794983642314120516e+03,-1.679367718253045950e+03,9.207368253868962711e+03,-4.063657282210469930e+02,9.484992027282714844e+00,-6.119350194931030273e-01,-1.070886254310607910e+00,9.700000000000000000e+01
5.550286425921342015e+03,-1.361740148045899787e+03,8.641423548660986853e+01,9.375701510574272106e+02,-1.674438732610912211e+03,-1.508659983657240446e+03,8.430197363804236375e+03,-2.470898006799307041e+02,9.484992027282714844e+00,-6.119350194931030273e-01,-1.070886254310607910e+00,9.800000000000000000e+01
5.514146248196657325e+03,-1.409036225991854280e+03,1.339616905146713179e+02,1.030691023770908942e+03,-1.612444435437358152e+03,-1.503973355655623891e+03,8.290512766991076205e+03,-2.525069422425549419e+02,9.484992027282714844e+00,-6.119350194931030273e-01,-1.070886254310607910e+00,9.900000000000000000e+01
5.609287322465790567e+03,-1.541044845037918094e+03,8.229486813328912831e+01,1.064966953755915711e+03,-1.629511720377095116e+03,-1.603049996272620774e+03,7.454816342211159281e+03,-3.617038117048477943e+02,9.484992027282714844e+00,-6.119350194931030273e-01,-1.070886254310607910e+00,1.000000000000000000e+02
5.632474004453068119e+03,-1.507226454732783168e+03,5.205593158489500638e+01,1.031691879149720990e+03,-1.638209774095438661e+03,-1.603751204691492148e+03,5.110765996284737412e+03,-3.732586331563561544e+02,9.484992027282714844e+00,-6.119350194931030273e-01,-1.070886254310607910e+00,1.010000000000000000e+02
5.481681310888306143e+03,-1.288607234270347362e+03,1.335296318333839736e+02,1.014563721341992277e+03,-1.563379424744981407e+03,-1.440606789327698152e+03,4.259646326244077500e+03,-2.220646591121258098e+02,9.484992027282714844e+00,-6.119350194931030273e-01,-1.070886254310607910e+00,1.020000000000000000e+02
5.296055936314955034e+03,-1.124118476830162763e+03,2.627669032599833372e+02,1.074246552394470200e+03,-1.444270103951685996e+03,-1.274440202394868720e+03,8.373699888640017889e+03,-6.777416484873356239e+01,9.484992027282714844e+00,-6.119350194931030273e-01,-1.070886254310607910e+00,1.030000000000000000e+02
5.262896298127227965e+03,-1.178292547234587801e+03,3.100266730704079237e+02,1.164082710027900248e+03,-1.380484349182481310e+03,-1.271766055177081398e+03,1.508609714445646387e+04,-7.539014789715974985e+01,9.484992027282714844e+00,-5.736890435218811035e-01,-1.147378087043762207e+00,1.040000000000000000e+02
5.359313805002992922e+03,-1.313151514622469222e+03,2.577729282953096117e+02,1.194931231721278891e+03,-1.396195321349691767e+03,-1.375022082355444127e+03,1.832339532595215132e+04,-1.887547597527959624e+02,9.484992027282714844e+00,-5.736890435218811035e-01,-1.147378087043762207e+00,1.050000000000000000e+02
5.384138281793539136e+03,-1.280098122710472126e+03,2.244182555524248528e+02,1.158752515605268854e+03,-1.406790136674213500e+03,-1.380963833250753851e+03,1.682312295506374721e+04,-2.068948158190905815e+02,9.484992027282714844e+00,-5.736890435218811035e-01,-1.147378087043762207e+00,1.060000000000000000e+02
5.234619321285103069e+03,-1.063571743135670658e+03,3.021885078145905936e+02,1.138778856576425824e+03,-1.333955986098344056e+03,-1.221892472890578574e+03,1.502333190486943931e+04,-5.986422329722881841e+01,9.484992027282714844e+00,-5.736890435218811035e-01,-1.147378087043762207e+00,1.070000000000000000e+02
5.047412404631687423e+03,-9.016766778174496721e+02,4.309177365821251442e+02,1.193209938890418016e+03,-1.213453829649935869e+03,-1.060793752985618084e+03,1.541617957974198907e+04,9.388385446661322931e+01,9.484992027282714844e+00,-5.736890435218811035e-01,-1.147378087043762207e+00,1.080000000000000000e+02
5.010369406369018179e+03,-9.576969087827947078e+02,4.804348196314667803e+02,1.274993180835151179e+03,-1.146636549896854376e+03,-1.065198061172850430e+03,1.579408252161571909e+04,8.575624905448557911e+01,9.484992027282714844e+00,-5.736890435218811035e-01,-1.147378087043762207e+00,1.090000000000000000e+02
5.104058365774418235e+03,-1.096805455357854498e+03,4.291588283138089537e+02,1.298537019194289314e+03,-1.160541964859790824e+03,-1.173185468742305147e+03,1.447858178855484221e+04,-2.849076100526053779e+01,9.484992027282714844e+00,-5.736890435218811035e-01,-1.147378087043762207e+00,1.100000000000000000e+02
5.129062176024153814e+03,-1.073101518837753247e+03,3.936691860348610135e+02,1.259057387099795051e+03,-1.170897585885345961e+03,-1.178972568545451395e+03,1.302433398540361304e+04,-4.542311933667542689e+01,9.484992027282714844e+00,-5.736890435218811035e-01,-1.147378087043762207e+00,1.110000000000000000e+02
4.981603249582740318e+03,-8.665174190097263818e+02,4.676514228078776796e+02,1.238642323544873761e+03,-1.100497682617793544e+03,-1.018849357458177110e+03,1.286163463552844405e+04,1.025992304574269838e+02,9.484992027282714844e+00,-5.736890435218811035e-01,-1.147378087043762207e+00,1.120000000000000000e+02
4.797249052755453704e+03,-7.082915635588876739e+02,5.916792512497504504e+02,1.292381118426243120e+03,-9.871706073932396066e+02,-8.586302111034651716e+02,1.307862627724447520e+04,2.526821935772704819e+02,9.484992027282714844e+00,-5.736890435218811035e-01,-1.147378087043762207e+00,1.130000000000000000e+02
4.763472268553875438e+03,-7.627337458703761968e+02,6.346981880827424902e+02,1.373166821205033557e+03,-9.303375641006546175e+02,-8.622303823647380341e+02,1.249093340399889894e+04,2.384803186223161902e+02,9.484992027282714844e+00,-5.736890435218811035e-01,-1.147378087043762207e+00,1.140000000000000000e+02
4.860199066909199246e+03,-9.021641785922784038e+02,5.755741135803464203e+02,1.397513776239065919e+03,-9.524205846565100728e+02,-9.655062617176054118e+02,1.136040793490746364e+04,1.210484682099995553e+02,9.484992027282714844e+00,-5.736890435218811035e-01,-1.147378087043762207e+00,1.150000000000000000e+02
4.887525146007784315e+03,-8.824886901965633115e+02,5.326657931204208580e+02,1.359726024298482116e+03,-9.683720417068661845e+02,-9.676982421728653208e+02,1.054517546145143569e+04,1.024676329940493815e+02,9.484992027282714844e+00,-5.736890435218811035e-01,-1.147378087043762207e+00,1.160000000000000000e+02
4.741530982184529421e+03,-6.786607399820118189e+02,5.998619937668609055e+02,1.338236653674804984e+03,-9.033876546550418425e+02,-8.093653491554946413e+02,1.022523937772155841e+04,2.459955404467791595e+02,9.484992027282714844e+00,-5.736890435218811035e-01,-1.147378087043762207e+00,1.170000000000000000e+02
4.557042510082867011e+03,-5.200038941875411638e+02,7.169848494604902953e+02,1.387661503291774352e+03,-7.953671127873649311e+02,-6.528088468212190492e+02,9.924472188895671934e+03,3.906999494065066756e+02,9.484992027282714844e+00,-5.736890435218811035e-01,-1.147378087043762207e+00,1.180000000000000000e+02
4.521075779180665450e+03,-5.740671766169878083e+02,7.543896196820478508e+02,1.464435696468919559e+03,-7.425594287032727152e+02,-6.579183022713755236e+02,9.404942642546940988e+03,3.745746257455962223e+02,9.484992027282714844e+00,-5.736890435218811035e-01,-1.147378087043762207e+00,1.190000000000000000e+02
4.615172407644226041e+03,-7.138565320262962359e+02,6.931486259518533188e+02,1.486644708693836947e+03,-7.686471226052440215e+02,-7.634606567947366784e+02,8.973822883647459093e+03,2.565790549373423346e+02,9.484992027282714844e+00,-5.736890435218811035e-01,-1.147378087043762207e+00,1.200000000000000000e+02
4.641654807463841280e+03,-6.933359558063514214e+02,6.504225277364421345e+02,1.446218620360340537e+03,-7.894392783500234145e+02,-7.720484026073941095e+02,8.732356536848425094e+03,2.345301248784617201e+02,9.484992027282714844e+00,-5.736890435218811035e-01,-1.147378087043762207e+00,1.210000000000000000e+02
4.496720416742391535e+03,-4.897444442725138742e+02,7.166868827363941818e+02,1.420265830615796403e+03,-7.275254675209275774e+02,-6.208946806947806181e+02,8.348414453810310079e+03,3.735909825208145776e+02,9.484992027282714844e+00,-5.736890435218811035e-01,-1.147378087043762207e+00,1.220000000000000000e+02
4.313779098238966071e+03,-3.356952340019479379e+02,8.313871452787443559e+02,1.465093541379696035e+03,-6.189522010483296981e+02,-4.685547610876187719e+02,7.949208064813876263e+03,5.168710072934045456e+02,9.484992027282714844e+00,-5.736890435218811035e-01,-1.147378087043762207e+00,1.230000000000000000e+02
4.278849113491610296e+03,-3.952594936563707506e+02,8.675680351736527882e+02,1.537780049946224608e+03,-5.642243324019818829e+02,-4.775505059186345989e+02,7.922839298252212757e+03,5.010072006773862086e+02,9.484992027282714844e+00,-5.736890435218811035e-01,-1.147378087043762207e+00,1.240000000000000000e+02
4.372953047130125015e+03,-5.370111728809540637e+02,8.069492303911511044e+02,1.555046958390863438e+03,-5.895663602149452345e+02,-5.891088423183337000e+02,7.615214457750149450e+03,3.815436594420216352e+02,9.484992027282714844e+00,-5.736890435218811035e-01,-1.147378087043762207e+00,1.250000000000000000e+02
4.398479136661597295e+03,-5.188357076393283478e+02,7.643827506931374955e+02,1.509721884097047223e+03,-6.107084938266025347e+02,-6.017175409812302860e+02,6.376466223599381919e+03,3.570117058704499868e+02,9.484992027282714844e+00,-5.736890435218811035e-01,-1.147378087043762207e+00,1.260000000000000000e+02
4.253011462157172900e+03,-3.226274868077443898e+02,8.295786003776811413e+02,1.482325344218987084e+03,-5.499161227229706128e+02,-4.491987517599927742e+02,5.910296545229059120e+03,4.948719989304963747e+02,9.484992027282714844e+00,-5.736890435218811035e-01,-1.147378087043762207e+00,1.270000000000000000e+02
4.071222930277203886e+03,-1.758390079505472841e+02,9.441190753715764004e+02,1.529571353312107021e+03,-4.433129472885079849e+02,-2.943292710524569884e+02,8.492237289148142736e+03,6.378246089467756974e+02,9.484992027282714844e+00,-5.736890435218811035e-01,-1.147378087043762207e+00,1.280000000000000000e+02
4.038504427827947438e+03,-2.363016315231470799e+02,9.820392292588603596e+02,1.604567259867391840e+03,-3.899437644070835631e+02,-3.045097066553357763e+02,1.278098386661192671e+04,6.213305416791426978e+02,9.484992027282714844e+00,-6.119350194931030273e-01,-1.070886254310607910e+00,1.290000000000000000e+02
4.135163382125053431e+03,-3.769713876252244518e+02,9.227455759366766870e+02,1.621179083650715256e+03,-4.149814021587289972e+02,-4.197676027514780799e+02,1.496575798570789266e+04,5.008817072101828671e+02,9.484992027282714844e+00,-6.119350194931030273e-01,-1.070886254310607910e+00,1.300000000000000000e+02
4.164490833605234002e+03,-3.621803829693576517e+02,8.786251677654545347e+02,1.573252289588979693e+03,-4.362970232839570599e+02,-4.368031017672312828e+02,1.421934534604735745e+04,4.740175790632602002e+02,9.484992027282714844e+00,-6.119350194931030273e-01,-1.070886254310607910e+00,1.310000000000000000e+02
4.023747918905891311e+03,-1.709446074041325119e+02,9.397811189050307803e+02,1.542295797490192854e+03,-3.780555723633297021e+02,-2.910535073334910976e+02,1.323120406804876075e+04,6.069207808320061304e+02,9.484992027282714844e+00,-6.119350194931030273e-01,-1.070886254310607910e+00,1.320000000000000000e+02
3.844254824657228710e+03,-2.609697937180703775e+01,1.049687596949930594e+03,1.584037945619220409e+03,-2.742086181721076628e+02,-1.439899372115514780e+02,1.339815590530892587e+04,7.443540117661432305e+02,9.484992027282714844e+00,-6.119350194931030273e-01,-1.070886254310607910e+00,1.330000000000000000e+02
3.809436042061603985e+03,-8.798857392998388605e+01,1.083060184219360963e+03,1.652579842285218547e+03,-2.214117581408238493e+02,-1.574467836049900598e+02,1.336610107679515568e+04,7.253870772681057133e+02,9.484992027282714844e+00,-6.119350194931030273e-01,-1.070886254310607910e+00,1.340000000000000000e+02
3.902639146812256513e+03,-2.314833615386983183e+02,1.018834042468333791e+03,1.666026686765097111e+03,-2.466777646823015857e+02,-2.708059839573438694e+02,1.246850607978134576e+04,6.050093705614872306e+02,9.484992027282714844e+00,-6.119350194931030273e-01,-1.070886254310607910e+00,1.350000000000000000e+02
3.931336587676380077e+03,-2.168920939483869006e+02,9.695084859327280356e+02,1.619948887275702873e+03,-2.705820084729043629e+02,-2.867042401005164720e+02,1.185964208244915790e+04,5.768749904288360995e+02,9.484992027282714844e+00,-6.119350194931030273e-01,-1.070886254310607910e+00,1.360000000000000000e+02
3.793278844855176430e+03,-2.304775049007139387e+01,1.026149159288824194e+03,1.591882741949579213e+03,-2.167221787090047656e+02,-1.427775698184625526e+02,1.198406683165068171e+04,7.060551529611329897e+02,9.484992027282714844e+00,-6.119350194931030273e-01,-1.070886254310607910e+00,1.370000000000000000e+02
3.617867518043106429e+03,1.207891558127917051e+02,1.132795273248578269e+03,1.633434651490370015e+03,-1.180122396639571889e+02,3.659642313505401034e+00,1.189205889086796742e+04,8.398828760921442154e+02,9.484992027282714844e+00,-6.119350194931030273e-01,-1.070886254310607910e+00,1.380000000000000000e+02
3.587219412057850604e+03,5.351966666174371312e+01,1.163869556738492065e+03,1.699609033513777831e+03,-7.235191187482996611e+01,-7.970608392299709521e+00,1.122803024718260349e+04,8.187150418953833650e+02,9.484992027282714844e+00,-6.119350194931030273e-01,-1.070886254310607910e+00,1.390000000000000000e+02
3.683630738923231547e+03,-9.289851993278148257e+01,1.097948376568606363e+03,1.711197704018624790e+03,-1.066962487720277295e+02,-1.210115753290242537e+02,1.065077540925888025e+04,6.959817590195507364e+02,9.484992027282714844e+00,-6.119350194931030273e-01,-1.070886254310607910e+00,1.400000000000000000e+02
3.713298832954730642e+03,-7.780933168784508780e+01,1.047477141689875680e+03,1.663616826175564711e+03,-1.379243379473418827e+02,-1.395324333219066375e+02,1.041222037111224563e+04,6.644894312543046908e+02,9.484992027282714844e+00,-6.119350194931030273e-01,-1.070886254310607910e+00,1.410000000000000000e+02
3.574164397361477313e+03,1.137944160789052148e+02,1.103058457206742787e+03,1.633270414637543581e+03,-8.707124760762440019e+01,1.371021069602193165e+00,1.019053573288681582e+04,7.906381618485384024e+02,9.484992027282714844e+00,-6.119350194931030273e-01,-1.070886254310607910e+00,1.420000000000000000e+02
3.397389684193080939e+03,2.524203717997384047e+02,1.207705130655028370e+03,1.672851045656130736e+03,1.084511601510735090e+01,1.449995698817319862e+02,9.918814779145181092e+03,9.225660618947249532e+02,9.484992027282714844e+00,-6.119350194931030273e-01,-1.070886254310607910e+00,1.430000000000000000e+02
3.366320932021706540e+03,1.823092660401955527e+02,1.235558342356312096e+03,1.738717033515518779e+03,5.527883494865795910e+01,1.293885594806743029e+02,9.607912576789778541e+03,8.993822623559826752e+02,9.484992027282714844e+00,-6.119350194931030273e-01,-1.070886254310607910e+00,1.440000000000000000e+02
3.463561742398203933e+03,3.390874712293862103e+01,1.166321975460852627e+03,1.750419628296431256e+03,1.995702028918208271e+01,1.188602209008740829e+01,9.056425820642773033e+03,7.733377753359691269e+02,9.484992027282714844e+00,-6.119350194931030273e-01,-1.070886254310607910e+00,1.450000000000000000e+02
3.495647616568716330e+03,4.271801653366446772e+01,1.113306587996096823e+03,1.701097237255758955e+03,-1.122467158648487384e+01,-1.035944064482146132e+01,8.479893195097709395e+03,7.381772720698872945e+02,9.484992027282714844e+00,-6.119350194931030273e-01,-1.070886254310607910e+00,1.460000000000000000e+02
3.359927862414217088e+03,2.280142879680656733e+02,1.166363672729054088e+03,1.666856159441427735e+03,3.852060947535210289e+01,1.266991344818211473e+02,8.383961406626238386e+03,8.622009699230111437e+02,9.484992027282714844e+00,-6.119350194931030273e-01,-1.070886254310607910e+00,1.470000000000000000e+02
3.185281345140772828e+03,3.685407886031850921e+02,1.267924013928272871e+03,1.702205495414369580e+03,1.328284457159963949e+02,2.663785021993978717e+02,8.429736400369076364e+03,9.938918462944457133e+02,9.484992027282714844e+00,-6.119350194931030273e-01,-1.070886254310607910e+00,1.480000000000000000e+02
3.153621674572941629e+03,3.055386992776716397e+02,1.293451942949541262e+03,1.765213497335937063e+03,1.739968694414642414e+02,2.487897610794645971e+02,7.838162236925145407e+03,9.709733563562931522e+02,9.484992027282714844e+00,-6.119350194931030273e-01,-1.070886254310607910e+00,1.490000000000000000e+02
3.249159187823373941e+03,1.598158534870303811e+02,1.223515516423825829e+03,1.774938148912104225e+03,1.386826389627126446e+02,1.310173078778677791e+02,7.009213005007286483e+03,8.448059373184751166e+02,9.484992027282714844e+00,-6.119350194931030273e-01,-1.070886254310607910e+00,1.500000000000000000e+02
3.280893297528609764e+03,1.656976766875573048e+02,1.169421743709971452e+03,1.722211797890552589e+03,1.095406409786610311e+02,1.070933664683266215e+02,6.915242848122878058e+03,8.096753281481751401e+02,9.484992027282714844e+00,-6.119350194931030273e-01,-1.070886254310607910e+00,1.510000000000000000e+02
3.146514933006061256e+03,3.474276870846802012e+02,1.219328179524232837e+03,1.682407665217705471e+03,1.611481572708091790e+02,2.402365294081168940e+02,7.038914111029464038e+03,9.340577104089843488e+02,9.484992027282714844e+00,-6.119350194931030273e-01,-1.070886254310607910e+00,1.520000000000000000e+02
2.973691575044322235e+03,4.838240251373290448e+02,1.318013354488531149e+03,1.712863688261406423e+03,2.577173035456014532e+02,3.759237601881116007e+02,6.250289402049002092e+03,1.065288628148151474e+03,9.484992027282714844e+00,-6.119350194931030273e-01,-1.070886254310607910e+00,1.530000000000000000e+02
2.943671116294743115e+03,4.145738925821183329e+02,1.343886411624344873e+03,1.774710171788001389e+03,3.018358870707659207e+02,3.552196096833818046e+02,5.540147755214551580e+03,1.040509944489867848e+03,9.484992027282714844e+00,-6.119350194931030273e-01,-1.070886254310607910e+00,1.540000000000000000e+02
3.041127600985340905e+03,2.644701872983505382e+02,1.275920547716402325e+03,1.786460837291203461e+03,2.670993069022483724e+02,2.347882292130295809e+02,7.025775265349044275e+03,9.119950686347774536e+02,9.484992027282714844e+00,-6.119350194931030273e-01,-1.070886254310607910e+00,1.550000000000000000e+02
3.076176436654492136e+03,2.709832935972835912e+02,1.222174990175965831e+03,1.736465528169922436e+03,2.336869234358441645e+02,2.094400802343905070e+02,1.019512704027525069e+04,8.742079002617592778e+02,9.408499717712402344e+00,-6.884268522262573242e-01,-1.032640218734741211e+00,1.560000000000000000e+02
2.947156997825695726e+03,4.544546139163294356e+02,1.271506318386395833e+03,1.698859028298218618e+03,2.782897092649250226e+02,3.430008811586176307e+02,1.214098989434865143e+04,9.944706883438839213e+02,9.408499717712402344e+00,-6.884268522262573242e-01,-1.032640218734741211e+00,1.570000000000000000e+02
2.780574823077529800e+03,5.902056079529488670e+02,1.370823151855142896e+03,1.730093402971367141e+03,3.688745794350450069e+02,4.793747917435277941e+02,1.172750606334660915e+04,1.120932444521256912e+03,9.408499717712402344e+00,-6.884268522262573242e-01,-1.032640218734741211e+00,1.580000000000000000e+02
2.755650194149569870e+03,5.197299422394457906e+02,1.396715857323461023e+03,1.789872454175549137e+03,4.091392522469095638e+02,4.580210463166517911e+02,1.065512886226424962e+04,1.093999221984056021e+03,9.408499717712402344e+00,-6.884268522262573242e-01,-1.032640218734741211e+00,1.590000000000000000e+02
2.857038505415303007e+03,3.674036875249139484e+02,1.325488942567641061e+03,1.797415370590590101e+03,3.716492789592423378e+02,3.354282100783850638e+02,1.031462227377216186e+04,9.662678730066991193e+02,9.408499717712402344e+00,-6.884268522262573242e-01,-1.032640218734741211e+00,1.600000000000000000e+02
2.896608481170742380e+03,3.661403534468186081e+02,1.267306771384469357e+03,1.744223231269465941e+03,3.354598209727657832e+02,3.059145933081581461e+02,1.023750896988890418e+04,9.276477247115462887e+02,9.408499717712402344e+00,-6.884268522262573242e-01,-1.032640218734741211e+00,1.610000000000000000e+02
2.772660476796881994e+03,5.376238521469513216e+02,1.314150584408147552e+03,1.705672867791659883e+03,3.764753668939056297e+02,4.333092238199776602e+02,9.893714351600867303e+03,1.042951099948355477e+03,9.408499717712402344e+00,-6.884268522262573242e-01,-1.032640218734741211e+00,1.620000000000000000e+02
2.609392248839771128e+03,6.658542011911667942e+02,1.410836436612055877e+03,1.736169266381630223e+03,4.627453170938963467e+02,5.647310831060844976e+02,9.580067875203920266e+03,1.164377696483911677e+03,9.408499717712402344e+00,-6.884268522262573242e-01,-1.032640218734741211e+00,1.630000000000000000e+02
2.585015662514422729e+03,5.961682259066355982e+02,1.430708397355694615e+03,1.794123476247255894e+03,4.989838660166910813e+02,5.432288545081291886e+02,9.333234988444923147e+03,1.136442808870327099e+03,9.408499717712402344e+00,-6.884268522262573242e-01,-1.032640218734741211e+00,1.640000000000000000e+02
2.685456864207144463e+03,4.477988133281310184e+02,1.352332500440945296e+03,1.800080604741158822e+03,4.579053767521631926e+02,4.240331864051813682e+02,8.817609094306944826e+03,1.009677398231232473e+03,9.408499717712402344e+00,-6.884268522262573242e-01,-1.032640218734741211e+00,1.650000000000000000e+02
2.723443258244611570e+03,4.491613873613455326e+02,1.289622797279997030e+03,1.746768022746511633e+03,4.176453813005978191e+02,3.974909661059357404e+02,8.266225366280586968e+03,9.707322831472711187e+02,9.408499717712402344e+00,-6.884268522262573242e-01,-1.032640218734741211e+00,1.660000000000000000e+02
2.597114424937313743e+03,6.223320215204871602e+02,1.333367542854286512e+03,1.709128675920844216e+03,4.546727893523898274e+02,5.264889526670110627e+02,8.135784265039059392e+03,1.085919928017877282e+03,9.408499717712402344e+00,-6.884268522262573242e-01,-1.032640218734741211e+00,1.670000000000000000e+02
2.431332855842752906e+03,7.506778500577329396e+02,1.426500678104112922e+03,1.740592152016661203e+03,5.390871390780107504e+02,6.592497789306705727e+02,8.116989341253338353e+03,1.209388921848404152e+03,9.408499717712402344e+00,-6.884268522262573242e-01,-1.032640218734741211e+00,1.680000000000000000e+02
2.405485060533692376e+03,6.771153735934894939e+02,1.445394359779445949e+03,1.798515072642551786e+03,5.759740955790596217e+02,6.376467691760601610e+02,7.648217326934258381e+03,1.182964692518604352e+03,9.408499717712402344e+00,-6.884268522262573242e-01,-1.032640218734741211e+00,1.690000000000000000e+02
2.505706668961031028e+03,5.225678852755349908e+02,1.370742296208817606e+03,1.802448327836576027e+03,5.366706946803822120e+02,5.150901635370241820e+02,6.966419289079953160e+03,1.054374357974290888e+03,9.408499717712402344e+00,-6.884268522262573242e-01,-1.032640218734741211e+00,1.700000000000000000e+02
2.544855556833286755e+03,5.203321424267910515e+02,1.311610984022158846e+03,1.745333657194867556e+03,4.988015566906883578e+02,4.832623394331471900e+02,6.648729705432577248e+03,1.012137691416843154e+03,9.408499717712402344e+00,-6.884268522262573242e-01,-1.032640218734741211e+00,1.710000000000000000e+02
2.421831459000107316e+03,6.938769303055210003e+02,1.354057490431855513e+03,1.703543242795297374e+03,5.385136690727770201e+02,6.075372384915208386e+02,6.601847665571092875e+03,1.124951504920979005e+03,9.408499717712402344e+00,-6.884268522262573242e-01,-1.032640218734741211e+00,1.720000000000000000e+02
2.260974378494625853e+03,8.242941480036097346e+02,1.444343094245868997e+03,1.731709990909577755e+03,6.239292119870490296e+02,7.362375366525843674e+02,6.358166761595022763e+03,1.245824957309249385e+03,9.408499717712402344e+00,-6.884268522262573242e-01,-1.032640218734741211e+00,1.730000000000000000e+02
2.239528113482686422e+03,7.529579086912895036e+02,1.464031075313900146e+03,1.787894333169421770e+03,6.587984896543216564e+02,7.104814183234743723e+02,5.891354000862125758e+03,1.215455352495302122e+03,9.408499717712402344e+00,-6.884268522262573242e-01,-1.032640218734741211e+00,1.740000000000000000e+02
2.342885563956651822e+03,5.995470226294651184e+02,1.392431281543701516e+03,1.791971494071080997e+03,6.159984951694324309e+02,5.841804219023952101e+02,5.439361304257010488e+03,1.083080341982543814e+03,9.408499717712402344e+00,-6.884268522262573242e-01,-1.032640218734741211e+00,1.750000000000000000e+02
2.385320826898930136e+03,5.947811664341229516e+02,1.335259073617131435e+03,1.735665506021301553e+03,5.750852127819591715e+02,5.489802792236757796e+02,5.044764642642094259e+03,1.038157350465239233e+03,9.408499717712402344e+00,-6.884268522262573242e-01,-1.032640218734741211e+00,1.760000000000000000e+02
2.266009142014403551e+03,7.619910590932322521e+02,1.379986945743917204e+03,1.693013073081006951e+03,6.124053946450783315e+02,6.691389827183284069e+02,4.771241205555485067e+03,1.148551626842561745e+03,9.408499717712402344e+00,-6.884268522262573242e-01,-1.032640218734741211e+00,1.770000000000000000e+02
2.107255214099640398e+03,8.868888283622441122e+02,1.473979835686161096e+03,1.718257562725654680e+03,6.961699315797475265e+02,7.937549534987538209e+02,4.699835931550220266e+03,1.267549676010059102e+03,9.408499717712402344e+00,-6.884268522262573242e-01,-1.032640218734741211e+00,1.780000000000000000e+02
2.085158904594126398e+03,8.148443073314792855e+02,1.494280560109221369e+03,1.771621952433073602e+03,7.304984706290296117e+02,7.662837859151209159e+02,4.460602612111068083e+03,1.236801284142146415e+03,9.408499717712402344e+00,-6.884268522262573242e-01,-1.032640218734741211e+00,1.790000000000000000e+02
2.186602478242716643e+03,6.643295687424574680e+02,1.417016628814120850e+03,1.774389090748141825e+03,6.872263370038251651e+02,6.402861271904353089e+02,3.720113154500200835e+03,1.104306032636477994e+03,9.408499717712402344e+00,-6.884268522262573242e-01,-1.032640218734741211e+00,1.800000000000000000e+02
2.227480564517771199e+03,6.633426335555395781e+02,1.352017528484587729e+03,1.717523916102659314e+03,6.442878289900758091e+02,6.046803987363036867e+02,3.122914054518467310e+03,1.057770932941647516e+03,9.408499717712402344e+00,-6.884268522262573242e-01,-1.032640218734741211e+00,1.810000000000000000e+02
2.106528552751728057e+03,8.352195382476361374e+02,1.390981284444524590e+03,1.674384093713372749e+03,6.776978100374856240e+02,7.235148744609191453e+02,3.330112412239843252e+03,1.165886196903636574e+03,9.408499717712402344e+00,-6.884268522262573242e-01,-1.032640218734741211e+00,1.820000000000000000e+02
1.944902018624162338e+03,9.658788089200324976e+02,1.479735046465641062e+03,1.699447781384536029e+03,7.559026571269598662e+02,8.480452418774020771e+02,3.435108203063557085e+03,1.283497154172498540e+03,9.408499717712402344e+00,-6.884268522262573242e-01,-1.032640218734741211e+00,1.830000000000000000e+02
1.919155227774603190e+03,8.976032939813426310e+02,1.494700287440848570e+03,1.752437653037573000e+03,7.837858971573887175e+02,8.215056842639123715e+02,2.378433330744534032e+03,1.252173342858841806e+03,9.408499717712402344e+00,-6.884268522262573242e-01,-1.032640218734741211e+00,1.840000000000000000e+02
2.018170504528514357e+03,7.449458340031278567e+02,1.416215233394487313e+03,1.753597763001004751e+03,7.359933344970680764e+02,6.954270198565559440e+02,1.554610876034839748e+03,1.120066197881866628e+03,9.408499717712402344e+00,-6.884268522262573242e-01,-1.032640218734741211e+00,1.850000000000000000e+02
2.059137099495248549e+03,7.357720236721679612e+02,1.354993691197594671e+03,1.694179115258836646e+03,6.927507409979218664e+02,6.595208905675999631e+02,3.251746514018905145e+03,1.076013548017988796e+03,9.408499717712402344e+00,-6.884268522262573242e-01,-1.032640218734741211e+00,1.860000000000000000e+02
1.939951338310658684e+03,8.974820205705450462e+02,1.397064936741375277e+03,1.648704350113262990e+03,7.276631899536999981e+02,7.802843052075972992e+02,6.699391395103320974e+03,1.187942604299526920e+03,9.484992027282714844e+00,-6.501809358596801758e-01,-1.070886254310607910e+00,1.870000000000000000e+02
1.780178832495159440e+03,1.020617275272799361e+03,1.485301916875332154e+03,1.671854184891884870e+03,8.052048672814969450e+02,9.082753317244764730e+02,8.651786713689290991e+03,1.308103269750971776e+03,9.484992027282714844e+00,-6.501809358596801758e-01,-1.070886254310607910e+00,1.880000000000000000e+02
1.756248719805599649e+03,9.491832249383278395e+02,1.499284552088734017e+03,1.723107356438925308e+03,8.308225376692762438e+02,8.840550929663095303e+02,7.984127296623532857e+03,1.277309388018898517e+03,9.484992027282714844e+00,-6.501809358596801758e-01,-1.070886254310607910e+00,1.890000000000000000e+02
1.858101324357928206e+03,7.961468193661526129e+02,1.420104743305465490e+03,1.723489036313128054e+03,7.819616262319359521e+02,7.585083298876529625e+02,6.764489148157571435e+03,1.144654526700694532e+03,9.484992027282714844e+00,-6.501809358596801758e-01,-1.070886254310607910e+00,1.900000000000000000e+02
1.903334757952499785e+03,7.870930442444723667e+02,1.355005551666100928e+03,1.664995649379772658e+03,7.380820844504255547e+02,7.212216168188679148e+02,6.622455085667898857e+03,1.098320739874347964e+03,9.484992027282714844e+00,-6.501809358596801758e-01,-1.070886254310607910e+00,1.910000000000000000e+02
1.789507616874128871e+03,9.486956606696071503e+02,1.390897485516500183e+03,1.620896185002730363e+03,7.708221443725307154e+02,8.368885510921763853e+02,6.869655700439704560e+03,1.205116024160049619e+03,9.484992027282714844e+00,-6.501809358596801758e-01,-1.070886254310607910e+00,1.920000000000000000e+02
1.636089529934978600e+03,1.071170645352890006e+03,1.476278945475143701e+03,1.643584210663454542e+03,8.465988408101243294e+02,9.565007697629362156e+02,6.539116402360912616e+03,1.319357830126920817e+03,9.484992027282714844e+00,-6.501809358596801758e-01,-1.070886254310607910e+00,1.930000000000000000e+02
1.619066254179328098e+03,9.967738741858102003e+02,1.491807075888541476e+03,1.692008559793026052e+03,8.735606109823930865e+02,9.253685496370781038e+02,5.911561074635627847e+03,1.285215921241461274e+03,9.484992027282714844e+00,-6.501809358596801758e-01,-1.070886254310607910e+00,1.940000000000000000e+02
1.726952384614683979e+03,8.373289966152469788e+02,1.414257496437276131e+03,1.688903353181036437e+03,8.272257023332929293e+02,7.970987089517598179e+02,5.524152573398187997e+03,1.151482634019721445e+03,9.484992027282714844e+00,-6.501809358596801758e-01,-1.070886254310607910e+00,1.950000000000000000e+02
1.776527748876264013e+03,8.207566042030680364e+02,1.349133130955096931e+03,1.628087558830369744e+03,7.834578701228782620e+02,7.580469547368061285e+02,5.297117283445445537e+03,1.103353050646359407e+03,9.484992027282714844e+00,-6.501809358596801758e-01,-1.070886254310607910e+00,1.960000000000000000e+02
1.666145803315256671e+03,9.770119804707401272e+02,1.385300603003289325e+03,1.583385988136033575e+03,8.143302457854156273e+02,8.702239418028984801e+02,5.042005491145712767e+03,1.207370191717559464e+03,9.484992027282714844e+00,-6.501809358596801758e-01,-1.070886254310607910e+00,1.970000000000000000e+02
1.515745180023497596e+03,1.096038011245807866e+03,1.471708725677943221e+03,1.606938741624308477e+03,8.889393496394168324e+02,9.875876775431379428e+02,4.813727811054085578e+03,1.320750652553498185e+03,9.484992027282714844e+00,-6.501809358596801758e-01,-1.070886254310607910e+00,1.980000000000000000e+02
1.500407320653030183e+03,1.018107644324523108e+03,1.487810046966908885e+03,1.656912571256104457e+03,9.151275339009126810e+02,9.581860834654967221e+02,4.558603428270809673e+03,1.288619503336865819e+03,9.484992027282714844e+00,-6.501809358596801758e-01,-1.070886254310607910e+00,1.990000000000000000e+02
1.608774284234230436e+03,8.561807547373036869e+02,1.410236752811457791e+03,1.654532720737268846e+03,8.659806286656453267e+02,8.325093412114033526e+02,4.089405398067059650e+03,1.156933172929017928e+03,9.484992027282714844e+00,-6.501809358596801758e-01,-1.070886254310607910e+00,2.000000000000000000e+02
1.659875705888139237e+03,8.406163821901895972e+02,1.344482768398067037e+03,1.592408036783058833e+03,8.176445529179550249e+02,7.929301844745932613e+02,3.546720074516849309e+03,1.108460570324434684e+03,9.484992027282714844e+00,-6.501809358596801758e-01,-1.070886254310607910e+00,2.010000000000000000e+02
1.553079709424578141e+03,1.000408858815704207e+03,1.379004269004714388e+03,1.544912735123273706e+03,8.449820668917277544e+02,9.023800617138622329e+02,3.363351824184535872e+03,1.210608239211373075e+03,9.484992027282714844e+00,-6.501809358596801758e-01,-1.070886254310607910e+00,2.020000000000000000e+02
1.405585125828203672e+03,1.123529467021718347e+03,1.463837573934244119e+03,1.566078207142945757e+03,9.175094077520986957e+02,1.017127873998987525e+03,3.489072236396721564e+03,1.322157435770632219e+03,9.484992027282714844e+00,-6.501809358596801758e-01,-1.070886254310607910e+00,2.030000000000000000e+02
1.388962035044233744e+03,1.051115746656909323e+03,1.479996496178878715e+03,1.615706478651456564e+03,9.406598133006555145e+02,9.845267968982502680e+02,3.179326381159386074e+03,1.287964049362602054e+03,9.484992027282714844e+00,-6.501809358596801758e-01,-1.070886254310607910e+00,2.040000000000000000e+02
1.491872790290512057e+03,8.952361661766060479e+02,1.403841038911467876e+03,1.615540898116465996e+03,8.874332689561942971e+02,8.547969151824599976e+02,2.202431925202111415e+03,1.153580427725848494e+03,9.484992027282714844e+00,-6.501809358596801758e-01,-1.070886254310607910e+00,2.050000000000000000e+02
1.536683753173772857e+03,8.802962733762392418e+02,1.340358364481956869e+03,1.557187322129330369e+03,8.370479477226754170e+02,8.135296096160677735e+02,1.738533664951633909e+03,1.102802961576323469e+03,9.484992027282714844e+00,-6.501809358596801758e-01,-1.070886254310607910e+00,2.060000000000000000e+02
1.425921550672329431e+03,1.032810916826311541e+03,1.378251393293578076e+03,1.512700246168984449e+03,8.649297362028160023e+02,9.254629588085012983e+02,2.975576834632132886e+03,1.203803319901257510e+03,9.484992027282714844e+00,-6.501809358596801758e-01,-1.070886254310607910e+00,2.070000000000000000e+02
1.277930279788897678e+03,1.147201187042288893e+03,1.465739862021482168e+03,1.534483863205769012e+03,9.376570577940733529e+02,1.043424558323788460e+03,5.163356540393709111e+03,1.315019400596968353e+03,9.523238182067871094e+00,-5.736890435218811035e-01,-1.147378087043762207e+00,2.080000000000000000e+02
1.264194483188412050e+03,1.069736636739130518e+03,1.480578291811247709e+03,1.583091915154933304e+03,9.601813102462010647e+02,1.011118706608348930e+03,6.445102668747445932e+03,1.281492078456898980e+03,9.523238182067871094e+00,-5.736890435218811035e-01,-1.147378087043762207e+00,2.090000000000000000e+02
1.372730218553570921e+03,9.092845863344841746e+02,1.399265263689178482e+03,1.581638939534751898e+03,9.079388528668114304e+02,8.795466100401690710e+02,6.352811844459343774e+03,1.149193082157249592e+03,9.523238182067871094e+00,-5.736890435218811035e-01,-1.147378087043762207e+00,2.100000000000000000e+02
1.424095963530316112e+03,8.886941666416018961e+02,1.329914197355874876e+03,1.521314669633517951e+03,8.592471766211704107e+02,8.358005574016428909e+02,5.967704751619517083e+03,1.100555385140217822e+03,9.523238182067871094e+00,-5.736890435218811035e-01,-1.147378087043762207e+00,2.110000000000000000e+02
1.317931229424106277e+03,1.039994333353029560e+03,1.362684488232890544e+03,1.473331276131453706e+03,8.862812179576494600e+02,9.437852515914159994e+02,5.920783754328801479e+03,1.202089860403631974e+03,9.523238182067871094e+00,-5.736890435218811035e-01,-1.147378087043762207e+00,2.120000000000000000e+02
1.170599369545317131e+03,1.158575719347360064e+03,1.446123121603265645e+03,1.491234739224550594e+03,9.573692594146659758e+02,1.057329164976046286e+03,5.860056871292206779e+03,1.313304477859980807e+03,9.523238182067871094e+00,-5.736890435218811035e-01,-1.147378087043762207e+00,2.130000000000000000e+02
1.154425419143088220e+03,1.083043560094516351e+03,1.459721088677762964e+03,1.537664491603566603e+03,9.820580301528971177e+02,1.024223042734435467e+03,5.669683443383690246e+03,1.281143409345357441e+03,9.523238182067871094e+00,-5.736890435218811035e-01,-1.147378087043762207e+00,2.140000000000000000e+02
1.260365771880318789e+03,9.194071905281086856e+02,1.380040949641502266e+03,1.536724832054561375e+03,9.342395669892546266e+02,8.960554577818584221e+02,5.683607045512082550e+03,1.150488146484227627e+03,9.523238182067871094e+00,-5.736890435218811035e-01,-1.147378087043762207e+00,2.150000000000000000e+02
1.311313271452408117e+03,8.963580867829593899e+02,1.311608735482579505e+03,1.479677888627714765e+03,8.863960837029665072e+02,8.551790768830665002e+02,5.808235683952540967e+03,1.101251658096579604e+03,9.523238182067871094e+00,-5.736890435218811035e-01,-1.147378087043762207e+00,2.160000000000000000e+02
1.206977041039124288e+03,1.047768640457228230e+03,1.342606835514423892e+03,1.436882931486211419e+03,9.100830278158289275e+02,9.631011097882801550e+02,5.639293085514816084e+03,1.199933687745725592e+03,9.523238182067871094e+00,-5.736890435218811035e-01,-1.147378087043762207e+00,2.170000000000000000e+02
1.062435978036995948e+03,1.165109413484487277e+03,1.424079126780545721e+03,1.459340092255817126e+03,9.777965536841036283e+02,1.076506474672970398e+03,5.309196725054893250e+03,1.307838799500290179e+03,9.523238182067871094e+00,-5.736890435218811035e-01,-1.147378087043762207e+00,2.180000000000000000e+02
1.049254439427751095e+03,1.088639402511418211e+03,1.437570795685458961e+03,1.507383225421808220e+03,1.000357273698283052e+03,1.044442816328377603e+03,5.257093704272777359e+03,1.272696932757056629e+03,9.523238182067871094e+00,-5.736890435218811035e-01,-1.147378087043762207e+00,2.190000000000000000e+02
1.158622327775560734e+03,9.293291126129170152e+02,1.358523881023985041e+03,1.505818776866448388e+03,9.498404434446795221e+02,9.156518640223368948e+02,5.432111066678092357e+03,1.139462461162057934e+03,9.523238182067871094e+00,-5.736890435218811035e-01,-1.147378087043762207e+00,2.200000000000000000e+02
1.213574948377853616e+03,9.120833310499381241e+02,1.290383516648915702e+03,1.447881673046624655e+03,8.986080609403365997e+02,8.716992435847721481e+02,5.432678745205928863e+03,1.088551287247657683e+03,9.523238182067871094e+00,-5.736890435218811035e-01,-1.147378087043762207e+00,2.210000000000000000e+02
1.113263145118644388e+03,1.062942205403838898e+03,1.321379835312259502e+03,1.403861118304480442e+03,9.194678332353387304e+02,9.770798891362348968e+02,5.184808037977972162e+03,1.186717430302294133e+03,9.523238182067871094e+00,-5.736890435218811035e-01,-1.147378087043762207e+00,2.220000000000000000e+02
9.722352382532449155e+02,1.174475072712423753e+03,1.402177521384784995e+03,1.423940094406120352e+03,9.851697903245742509e+02,1.089717417552176585e+03,4.967191629267809731e+03,1.295120330329907347e+03,9.523238182067871094e+00,-5.736890435218811035e-01,-1.147378087043762207e+00,2.230000000000000000e+02
9.620874386442887953e+02,1.092729867761453534e+03,1.414878557526508757e+03,1.469456602484118775e+03,1.006711807447599767e+03,1.057026242346719073e+03,4.954503238093535401e+03,1.261539607864134496e+03,9.523238182067871094e+00,-5.736890435218811035e-01,-1.147378087043762207e+00,2.240000000000000000e+02
1.074038971676069650e+03,9.281542595624471232e+02,1.336925064453776258e+03,1.466120526343482197e+03,9.567080756275931890e+02,9.274691446022923174e+02,5.049062953728009234e+03,1.130325446078522191e+03,9.523238182067871094e+00,-5.736890435218811035e-01,-1.147378087043762207e+00,2.250000000000000000e+02
1.130876352790010515e+03,9.030027690554654782e+02,1.271378584293668609e+03,1.405847032500715841e+03,9.070996239626801980e+02,8.837521845379148999e+02,5.047994045850024122e+03,1.080558187181470657e+03,9.523238182067871094e+00,-5.736890435218811035e-01,-1.147378087043762207e+00,2.260000000000000000e+02
1.031725918586541866e+03,1.046272625154225807e+03,1.303267583753122835e+03,1.358119871190377580e+03,9.300424160622674208e+02,9.899008625015396774e+02,4.865726834145529210e+03,1.179204186109273905e+03,9.523238182067871094e+00,-5.736890435218811035e-01,-1.147378087043762207e+00,2.270000000000000000e+02
8.912971027611347381e+02,1.153701331583902629e+03,1.382535229322108989e+03,1.375060221425341297e+03,9.983470703491020686e+02,1.102626218807592068e+03,4.643564302358418900e+03,1.289070439919224100e+03,9.523238182067871094e+00,-5.736890435218811035e-01,-1.147378087043762207e+00,2.280000000000000000e+02
8.812913431286160630e+02,1.069017729383484493e+03,1.393930024276219456e+03,1.419682307112109356e+03,1.022174136806339220e+03,1.069211113919288891e+03,4.594214982991383295e+03,1.257477796338462440e+03,9.523238182067871094e+00,-5.736890435218811035e-01,-1.147378087043762207e+00,2.290000000000000000e+02
9.937134025578748151e+02,9.009621988773078556e+02,1.315827151101298341e+03,1.416639471799206603e+03,9.725097765729378807e+02,9.376782058084277196e+02,4.705859402360441891e+03,1.126139209803362746e+03,9.523238182067871094e+00,-5.736890435218811035e-01,-1.147378087043762207e+00,2.300000000000000000e+02
1.052773168767774223e+03,8.753735291411089747e+02,1.249959431980094223e+03,1.356578374680752859e+03,9.215838769068309375e+02,8.898106393979426230e+02,4.731556983761433003e+03,1.073423825935514969e+03,9.523238182067871094e+00,-5.736890435218811035e-01,-1.147378087043762207e+00,2.310000000000000000e+02
9.576525553040169143e+02,1.024172855325581395e+03,1.281879979514150136e+03,1.309707300869451501e+03,9.429141089725953861e+02,9.906414366702019834e+02,4.539639050017671252e+03,1.167955349271031309e+03,9.523238182067871094e+00,-5.736890435218811035e-01,-1.147378087043762207e+00,2.320000000000000000e+02
8.213129207901470181e+02,1.140340499157663999e+03,1.362975685677845377e+03,1.328814884625637205e+03,1.008547754113271367e+03,1.099133590347280688e+03,4.309948999363108669e+03,1.273244844024127588e+03,9.484992027282714844e+00,-5.354431271553039551e-01,-1.147378087043762207e+00,2.330000000000000000e+02
8.145006389483901330e+02,1.062832349132397212e+03,1.376184156763664305e+03,1.375709595218260802e+03,1.027428347810857758e+03,1.063004007187219941e+03,4.276672821440753978e+03,1.236740067512951100e+03,9.484992027282714844e+00,-5.354431271553039551e-01,-1.147378087043762207e+00,2.340000000000000000e+02
9.299264773755667193e+02,8.986358078679190839e+02,1.296485944632421251e+03,1.373894146949020069e+03,9.722024901697068344e+02,9.293153108989795328e+02,4.398542534312553471e+03,1.101972193318539894e+03,9.484992027282714844e+00,-5.354431271553039551e-01,-1.147378087043762207e+00,2.350000000000000000e+02
9.917383286582098663e+02,8.751885899481771958e+02,1.225181917446033367e+03,1.314927257542855841e+03,9.170669109709169788e+02,8.794682281068462544e+02,4.420907687606184481e+03,1.048199476277619397e+03,9.484992027282714844e+00,-5.354431271553039551e-01,-1.147378087043762207e+00,2.360000000000000000e+02
8.980319833787971220e+02,1.026971160530550605e+03,1.249827454552736526e+03,1.270568515365463099e+03,9.342377376421436566e+02,9.779309449971251524e+02,4.233821592466464608e+03,1.141303078840381204e+03,9.484992027282714844e+00,-5.354431271553039551e-01,-1.147378087043762207e+00,2.370000000000000000e+02
7.622732070054753422e+02,1.148268929783982912e+03,1.323284374695822862e+03,1.293358455354359648e+03,9.940507442426937814e+02,1.082952632301657104e+03,4.013754629613216821e+03,1.242751543360063351e+03,9.484992027282714844e+00,-5.354431271553039551e-01,-1.147378087043762207e+00,2.380000000000000000e+02
7.566886305909356452e+02,1.077252791785273075e+03,1.329660926584108893e+03,1.343448782178530564e+03,1.006859499731294818e+03,1.043809822885843460e+03,3.983709788497104455e+03,1.202636119837305614e+03,9.484992027282714844e+00,-5.354431271553039551e-01,-1.147378087043762207e+00,2.390000000000000000e+02
8.732791660403781862e+02,9.181175266892801119e+02,1.245893679922252886e+03,1.343607896477840768e+03,9.473922148552696854e+02,9.101033655880082733e+02,4.105232895774683129e+03,1.067294569851546839e+03,9.484992027282714844e+00,-5.354431271553039551e-01,-1.147378087043762207e+00,2.400000000000000000e+02
9.346309005584134866e+02,8.941154211943839982e+02,1.174952285786883294e+03,1.286024693539958662e+03,8.898801167264973628e+02,8.624125125963091705e+02,4.131975680920484592e+03,1.014368360151423076e+03,9.484992027282714844e+00,-5.354431271553039551e-01,-1.147378087043762207e+00,2.410000000000000000e+02
8.400373953036305466e+02,1.037338427893463631e+03,1.204400626127635860e+03,1.242567399381500309e+03,9.064175761624851475e+02,9.623371017751483123e+02,3.949647850913057482e+03,1.107501334613719337e+03,9.484992027282714844e+00,-5.354431271553039551e-01,-1.147378087043762207e+00,2.420000000000000000e+02
7.049959524112255167e+02,1.146020012907298678e+03,1.285070239375250367e+03,1.264909851697555041e+03,9.680922692977082988e+02,1.068288008533332686e+03,3.733362642998130468e+03,1.209119497643645445e+03,9.484992027282714844e+00,-5.354431271553039551e-01,-1.147378087043762207e+00,2.430000000000000000e+02
7.007377131013417966e+02,1.066291784151168031e+03,1.297494968702078040e+03,1.313354963197442885e+03,9.844383815170890557e+02,1.031431153705731049e+03,3.705612745721180545e+03,1.169924567938151085e+03,9.484992027282714844e+00,-5.354431271553039551e-01,-1.147378087043762207e+00,2.440000000000000000e+02
8.176283433065700592e+02,9.049302286536330939e+02,1.215865210589348862e+03,1.312110669005305681e+03,9.276579130051882203e+02,9.002977266667116965e+02,3.829080157267728282e+03,1.034185279520903350e+03,9.484992027282714844e+00,-5.354431271553039551e-01,-1.147378087043762207e+00,2.450000000000000000e+02
8.796023723088128463e+02,8.801286819890051447e+02,1.143681188350904449e+03,1.253462755831092181e+03,8.710964821177390149e+02,8.535962654758877761e+02,3.858532205384759436e+03,9.794044018386684911e+02,9.484992027282714844e+00,-5.354431271553039551e-01,-1.147378087043762207e+00,2.460000000000000000e+02
7.870373410925858479e+02,1.020481466520483082e+03,1.171026985113112005e+03,1.207512041300175952e+03,8.885248427715791877e+02,9.546164274045286220e+02,3.679263478504966770e+03,1.073033651005981483e+03,9.484992027282714844e+00,-5.354431271553039551e-01,-1.147378087043762207e+00,2.470000000000000000e+02
6.527529661610442417e+02,1.126628973238905019e+03,1.250220698863248344e+03,1.225538644686621410e+03,9.528063406837482034e+02,1.063710264459115933e+03,3.465441358548801873e+03,1.179661214854245827e+03,9.484992027282714844e+00,-5.354431271553039551e-01,-1.147378087043762207e+00,2.480000000000000000e+02
6.459595710420735486e+02,1.045632972570148013e+03,1.262308232162521563e+03,1.270019818313050564e+03,9.739874731842901383e+02,1.029630463503543979e+03,3.439757530664550359e+03,1.147249220090712697e+03,9.484992027282714844e+00,-5.354431271553039551e-01,-1.147378087043762207e+00,2.490000000000000000e+02
7.598661138704155746e+02,8.807853480302428579e+02,1.182202380610322507e+03,1.266651547736798420e+03,9.235753546907290001e+02,8.979648808628689949e+02,3.565876633747047890e+03,1.016766675979213687e+03,9.484992027282714844e+00,-5.354431271553039551e-01,-1.147378087043762207e+00,2.500000000000000000e+02
8.214925679425923590e+02,8.503128848961828226e+02,1.112891914341860684e+03,1.206655274183792244e+03,8.725232083096634597e+02,8.487669813007851189e+02,3.598866436318290653e+03,9.652308374590534186e+02,9.484992027282714844e+00,-5.354431271553039551e-01,-1.147378087043762207e+00,2.510000000000000000e+02
7.298277610911281954e+02,9.884352084124388966e+02,1.142004073284131664e+03,1.159007633705790795e+03,8.917507529269096267e+02,9.476160650157798955e+02,3.423529120971172233e+03,1.060341097519587493e+03,9.484992027282714844e+00,-5.354431271553039551e-01,-1.147378087043762207e+00,2.520000000000000000e+02
5.957011976281428360e+02,1.097569266277844235e+03,1.220787456597789060e+03,1.175506715394205457e+03,9.543904279589742146e+02,1.054179017913446842e+03,3.213719569622571726e+03,1.166441042059504070e+03,9.484992027282714844e+00,-5.354431271553039551e-01,-1.147378087043762207e+00,2.530000000000000000e+02
5.897506459899796027e+02,1.019457872596367451e+03,1.232815758253360400e+03,1.218988755701422633e+03,9.740119773479791547e+02,1.016510515419669900e+03,3.192100741333662882e+03,1.132311231181948642e+03,9.484992027282714844e+00,-5.354431271553039551e-01,-1.147378087043762207e+00,2.540000000000000000e+02
7.064674612100898230e+02,8.541890948832951835e+02,1.155762279156178010e+03,1.214481762046085350e+03,9.239095594659611379e+02,8.815830428251620106e+02,3.321942262968190335e+03,9.999445119690644788e+02,9.484992027282714844e+00,-5.354431271553039551e-01,-1.147378087043762207e+00,2.550000000000000000e+02
7.710585404765388375e+02,8.233145395962073962e+02,1.091571097965194895e+03,1.153412226655879749e+03,8.729385680267714633e+02,8.295281956196158717e+02,3.357896185944115132e+03,9.454843295280497841e+02,9.484992027282714844e+00,-5.354431271553039551e-01,-1.147378087043762207e+00,2.560000000000000000e+02
6.813119585309450486e+02,9.633709991483137856e+02,1.124364047505087001e+03,1.106315034405370170e+03,8.903617322369773319e+02,9.246004272534646589e+02,3.185298428671658257e+03,1.036083050050160637e+03,9.484992027282714844e+00,-5.354431271553039551e-01,-1.147378087043762207e+00,2.570000000000000000e+02
5.495260129775524547e+02,1.073974194978001833e+03,1.203787731001337306e+03,1.125716912574501293e+03,9.506581018278102420e+02,1.028376405157890076e+03,2.978692080173814247e+03,1.138794204897321833e+03,9.484992027282714844e+00,-5.354431271553039551e-01,-1.147378087043762207e+00,2.580000000000000000e+02
5.466291975969925261e+02,9.954522361577501215e+02,1.214568225095534217e+03,1.173637911349053866e+03,9.680233676313564501e+02,9.924427990671756561e+02,2.961385417436802527e+03,1.105045725737327302e+03,9.484992027282714844e+00,-5.354431271553039551e-01,-1.147378087043762207e+00,2.590000000000000000e+02
6.651275437155945838e+02,8.312981342274306371e+02,1.134842135927873642e+03,1.174402673857292029e+03,9.137734908970796823e+02,8.620534869721559517e+02,3.096425304314787354e+03,9.749279354311111092e+02,9.446745872497558594e+00,-6.119350194931030273e-01,-1.070886254310607910e+00,2.600000000000000000e+02
7.301089698741070606e+02,8.047958078270012265e+02,1.064889869771377562e+03,1.119137200165698232e+03,8.564442652022216862e+02,8.121792319160240368e+02,3.138682174668640073e+03,9.211797507699984635e+02,9.446745872497558594e+00,-6.119350194931030273e-01,-1.070886254310607910e+00,2.610000000000000000e+02
6.413186301289933908e+02,9.488543939206283540e+02,1.088908295737199296e+03,1.077053359198553153e+03,8.683477544492088782e+02,9.070489963828877080e+02,2.973116631790930114e+03,1.011321814476551481e+03,9.446745872497558594e+00,-6.119350194931030273e-01,-1.070886254310607910e+00,2.620000000000000000e+02
5.105612910730851581e+02,1.060103662825897118e+03,1.160751730761869112e+03,1.099023764140085405e+03,9.255395413402611666e+02,1.012315307392246723e+03,2.772523192970871605e+03,1.114289238486754584e+03,9.446745872497558594e+00,-6.119350194931030273e-01,-1.070886254310607910e+00,2.630000000000000000e+02
5.064628008302970557e+02,9.803988783381455505e+02,1.168692561616627245e+03,1.147503888310180628e+03,9.403343976495807510e+02,9.788530954672924054e+02,2.758257374947475910e+03,1.080078993597035151e+03,9.446745872497558594e+00,-6.119350194931030273e-01,-1.070886254310607910e+00,2.640000000000000000e+02
6.225911070183337870e+02,8.145937512294767657e+02,1.089169882727407639e+03,1.148871246230757606e+03,8.833506672719813650e+02,8.471416114363819361e+02,2.894882213117736683e+03,9.464235401306450512e+02,9.446745872497558594e+00,-6.119350194931030273e-01,-1.070886254310607910e+00,2.650000000000000000e+02
6.875559897749262745e+02,7.849482412991674209e+02,1.019638930512207480e+03,1.094770013759114590e+03,8.253627703988549911e+02,7.922361337561851542e+02,2.939690784269841970e+03,8.875628308159921289e+02,9.446745872497558594e+00,-6.119350194931030273e-01,-1.070886254310607910e+00,2.660000000000000000e+02
6.013636444531184679e+02,9.257262839487075325e+02,1.045621309148452383e+03,1.052888543020171710e+03,8.393062514926023141e+02,8.828102168835594057e+02,2.777263135624751158e+03,9.741096128136996413e+02,9.446745872497558594e+00,-6.119350194931030273e-01,-1.070886254310607910e+00,2.670000000000000000e+02
4.732711918678869552e+02,1.037452005811848721e+03,1.122837890827589945e+03,1.073338415642463588e+03,8.987215375453033630e+02,9.848965316124540550e+02,2.578471015175276989e+03,1.075084114644714646e+03,9.446745872497558594e+00,-6.119350194931030273e-01,-1.070886254310607910e+00,2.680000000000000000e+02
4.717853961687414994e+02,9.615253327438504130e+02,1.136831128774489116e+03,1.119391205874904699e+03,9.145017644977433520e+02,9.462886246251719058e+02,2.564891465511842398e+03,1.039248611706752854e+03,9.446745872497558594e+00,-6.119350194931030273e-01,-1.070886254310607910e+00,2.690000000000000000e+02
5.924048014357686043e+02,7.975894087966589723e+02,1.060337421609698140e+03,1.117532289393428073e+03,8.584382618282652402e+02,8.088177902066581737e+02,2.702930266464583838e+03,9.052461685326024963e+02,9.446745872497558594e+00,-6.119350194931030273e-01,-1.070886254310607910e+00,2.700000000000000000e+02
6.630606609882561315e+02,7.657596700426438474e+02,9.911810770721922381e+02,1.058557507156167048e+03,8.017916710131012223e+02,7.524256261702939810e+02,2.750154514100704546e+03,8.484017502207680081e+02,9.446745872497558594e+00,-6.119350194931030273e-01,-1.070886254310607910e+00,2.710000000000000000e+02
5.809351237085556932e+02,9.030959213787355111e+02,1.016598073707527874e+03,1.011073624143216875e+03,8.163742332907258969e+02,8.464665167193088564e+02,2.589861648522739415e+03,9.378734790931639509e+02,9.446745872497558594e+00,-6.119350194931030273e-01,-1.070886254310607910e+00,2.720000000000000000e+02
4.545314306542422855e+02,1.011936211694970552e+03,1.091927572412963855e+03,1.027929902635498365e+03,8.754099309284993069e+02,9.536640567943386486e+02,2.392384630151456804e+03,1.040987284015282967e+03,9.446745872497558594e+00,-6.119350194931030273e-01,-1.070886254310607910e+00,2.730000000000000000e+02
4.536718141962337540e+02,9.330363954342483339e+02,1.102717326971562215e+03,1.073369670699883500e+03,8.906574022425083967e+02,9.207869437137487694e+02,2.379750421308555815e+03,1.007092318511210578e+03,9.446745872497558594e+00,-6.119350194931030273e-01,-1.070886254310607910e+00,2.740000000000000000e+02
5.742677609138299886e+02,7.662515801779154572e+02,1.023403147600733064e+03,1.072105555526826720e+03,8.344418106265311508e+02,7.904542594003905833e+02,2.518789851361172623e+03,8.759111447209070320e+02,9.446745872497558594e+00,-6.119350194931030273e-01,-1.070886254310607910e+00,2.750000000000000000e+02
6.438580829824859393e+02,7.320789857291247245e+02,9.520901215572248475e+02,1.013549071155763158e+03,7.783572438863102434e+02,7.403590878970626363e+02,2.567764142389867629e+03,8.224973460471719591e+02,9.446745872497558594e+00,-6.119350194931030273e-01,-1.070886254310607910e+00,2.760000000000000000e+02
5.600981913429059205e+02,8.663119378927385696e+02,9.751223690169535985e+02,9.667171224896719650e+02,7.949192935826049506e+02,8.364000372357004380e+02,2.410916031845994439e+03,9.155010088071576320e+02,9.446745872497558594e+00,-6.119350194931030273e-01,-1.070886254310607910e+00,2.770000000000000000e+02
4.320685182439483469e+02,9.714698134531918186e+02,1.049451890329577509e+03,9.846972206037389697e+02,8.574766131576179760e+02,9.418092908140151849e+02,2.218187678799855348e+03,1.021949893754050208e+03,9.446745872497558594e+00,-6.119350194931030273e-01,-1.070886254310607910e+00,2.780000000000000000e+02
4.293742752059442864e+02,8.913343034520694346e+02,1.063220674009608047e+03,1.031222519458829993e+03,8.768183323460907559e+02,9.063243440763599210e+02,2.209838583511707839e+03,9.899042323071535066e+02,9.446745872497558594e+00,-6.119350194931030273e-01,-1.070886254310607910e+00,2.790000000000000000e+02
5.484205691309543909e+02,7.269963259104351891e+02,9.897507927140450192e+02,1.031196859836718431e+03,8.240465473426611425e+02,7.733663689436816639e+02,2.352129488894752285e+03,8.575866504756722861e+02,9.446745872497558594e+00,-6.119350194931030273e-01,-1.070886254310607910e+00,2.800000000000000000e+02
6.184760816606867593e+02,6.962560047274982935e+02,9.235469079680769937e+02,9.744177887101068336e+02,7.695793297423606418e+02,7.202421181972094928e+02,2.404677812005942542e+03,8.006362217513342330e+02,9.446745872497558594e+00,-6.119350194931030273e-01,-1.070886254310607910e+00,2.810000000000000000e+02
5.378159935643052449e+02,8.323834670089163410e+02,9.493770186764213577e+02,9.288009955517773051e+02,7.848566041523954482e+02,8.141610473290838854e+02,2.252222796765654493e+03,8.899516861386218807e+02,9.446745872497558594e+00,-6.119350194931030273e-01,-1.070886254310607910e+00,2.820000000000000000e+02
4.139572958792778081e+02,9.380451857108855620e+02,1.024503010392758370e+03,9.460292554506559100e+02,8.435467234083698713e+02,9.193704392711733817e+02,2.063170208770032332e+03,9.938873104846679780e+02,9.446745872497558594e+00,-6.119350194931030273e-01,-1.070886254310607910e+00,2.830000000000000000e+02
4.149646276655148540e+02,8.581673474858289410e+02,1.036975275334652906e+03,9.905777831818941195e+02,8.586539019563733746e+02,8.838615541106464661e+02,2.057079958856746089e+03,9.602502464524332026e+02,9.446745872497558594e+00,-6.119350194931030273e-01,-1.070886254310607910e+00,2.840000000000000000e+02
5.371233843750123924e+02,6.948345410691126744e+02,9.604579000669527886e+02,9.894627448576284223e+02,8.032327314880258200e+02,7.490709930940520280e+02,2.201362136888012174e+03,8.267844811337381543e+02,9.446745872497558594e+00,-6.119350194931030273e-01,-1.070886254310607910e+00,2.850000000000000000e+02
6.096541191697979230e+02,6.663261110302155430e+02,8.911090115274764685e+02,9.332263234734855359e+02,7.475154758136050077e+02,6.926956006081381929e+02,2.257223497121787659e+03,7.688837530055934621e+02,9.446745872497558594e+00,-6.119350194931030273e-01,-1.070886254310607910e+00,2.860000000000000000e+02
5.302502898412203649e+02,8.051836809966989676e+02,9.147934345248595491e+02,8.889636493902726215e+02,7.618230185053926107e+02,7.832203955802197015e+02,2.108185226259724004e+03,8.570385611436031468e+02,9.446745872497558594e+00,-6.119350194931030273e-01,-1.070886254310607910e+00,2.870000000000000000e+02
4.066751961717964150e+02,9.135785359700657864e+02,9.884966527320175373e+02,9.079126971857021999e+02,8.195892373331771523e+02,8.857854752829716745e+02,1.921669160650009871e+03,9.594801114674210112e+02,9.446745872497558594e+00,-6.119350194931030273e-01,-1.070886254310607910e+00,2.880000000000000000e+02
4.081563994425559940e+02,8.374123711263237055e+02,1.000315938583798925e+03,9.549286977975789341e+02,8.340846902737648634e+02,8.498679145149690157e+02,1.918163145025435369e+03,9.246727171659658779e+02,9.446745872497558594e+00,-6.119350194931030273e-01,-1.070886254310607910e+00,2.890000000000000000e+02
5.313576053505712480e+02,6.783144108047054033e+02,9.247997006439709367e+02,9.570481526201674569e+02,7.780192380851276539e+02,7.178951737974766729e+02,2.066181693690246902e+03,7.909356813870908809e+02,9.446745872497558594e+00,-6.119350194931030273e-01,-1.070886254310607910e+00,2.900000000000000000e+02
6.049305427590406907e+02,6.517064654844343750e+02,8.583444927970740537e+02,9.042636177077856701e+02,7.210814470017121494e+02,6.656939873114697548e+02,2.125577852646165411e+03,7.332346394419382705e+02,9.484992027282714844e+00,-6.501809358596801758e-01,-1.109132170677185059e+00,2.910000000000000000e+02
5.263955149353860179e+02,7.901030444917741988e+02,8.856717297244631482e+02,8.633928790269128513e+02,7.336788214976731979e+02,7.587886179663128132e+02,1.979495714424294420e+03,8.213261725561933417e+02,9.484992027282714844e+00,-6.501809358596801758e-01,-1.109132170677185059e+00,2.920000000000000000e+02
4.035529749367306067e+02,8.994845189933057554e+02,9.620775509513750876e+02,8.856587469611113193e+02,7.895789667482004006e+02,8.619352554605902696e+02,1.795968244621290069e+03,9.235049938625652430e+02,9.484992027282714844e+00,-6.501809358596801758e-01,-1.109132170677185059e+00,2.930000000000000000e+02
4.049391681845227140e+02,8.260019079497560597e+02,9.746844558988414065e+02,9.352054606573001365e+02,8.020078096793222358e+02,8.256704701924554684e+02,1.795239735144459701e+03,8.886163355359822162e+02,9.484992027282714844e+00,-6.501809358596801758e-01,-1.109132170677185059e+00,2.940000000000000000e+02
5.268981501652160659e+02,6.666326004248985555e+02,8.984551673104306246e+02,9.375727737320630695e+02,7.438272448317729868e+02,6.918159830147960747e+02,1.945000734158886189e+03,7.546701396940406994e+02,9.484992027282714844e+00,-6.501809358596801758e-01,-1.109132170677185059e+00,2.950000000000000000e+02
5.992314320407203923e+02,6.358508487954059092e+02,8.306883596212501288e+02,8.819550037979388435e+02,6.857272105512147391e+02,6.358684941404462734e+02,2.005479711933279759e+03,6.963579406791031943e+02,9.484992027282714844e+00,-6.501809358596801758e-01,-1.109132170677185059e+00,2.960000000000000000e+02
5.201987304166541435e+02,7.704003788566333242e+02,8.558976772615314985e+02,8.364955776899987541e+02,6.990524713989307202e+02,7.266970631548083475e+02,1.860456159638772078e+03,7.846941751859449141e+02,9.484992027282714844e+00,-6.501809358596801758e-01,-1.109132170677185059e+00,2.970000000000000000e+02
3.962211188884939475e+02,8.770776140360612771e+02,9.285687592530794063e+02,8.551415881938701204e+02,7.571487613512199459e+02,8.329895650674716308e+02,1.677245216389608686e+03,8.900037635911066900e+02,9.484992027282714844e+00,-6.501809358596801758e-01,-1.109132170677185059e+00,2.980000000000000000e+02
3.945668130578342243e+02,7.989054540541073948e+02,9.364473260477661825e+02,9.036973624186284724e+02,7.719634524503708235e+02,8.042011699147042236e+02,1.675493739836951136e+03,8.611745787896379625e+02,9.484992027282714844e+00,-6.501809358596801758e-01,-1.109132170677185059e+00,2.990000000000000000e+02
5.129819161454070127e+02,6.340801939502871392e+02,8.562978905149502680e+02,9.070590580415482691e+02,7.156901391181345389e+02,6.774550502488054917e+02,1.824475722451687034e+03,7.334437975341534184e+02,9.484992027282714844e+00,-6.501809358596801758e-01,-1.109132170677185059e+00,3.000000000000000000e+02
5.835157563924840360e+02,6.016117838835561997e+02,7.863037841830864636e+02,8.529155644919628685e+02,6.591101373146484548e+02,6.258570467060580995e+02,1.886252050502538623e+03,6.785973593189191888e+02,9.484992027282714844e+00,-6.501809358596801758e-01,-1.109132170677185059e+00,3.010000000000000000e+02
5.044496341845187999e+02,7.377596515560853732e+02,8.110797864029009361e+02,8.087509657546324888e+02,6.737596681248105597e+02,7.188350851718168997e+02,1.744345330555181135e+03,7.672472578127180896e+02,9.484992027282714844e+00,-6.501809358596801758e-01,-1.109132170677185059e+00,3.020000000000000000e+02
3.808648716228344711e+02,8.458070006108719099e+02,8.858116302380167326e+02,8.283038343218213413e+02,7.333526269089416019e+02,8.245986500291037373e+02,1.564563883891052683e+03,8.710342090267840831e+02,9.484992027282714844e+00,-6.501809358596801758e-01,-1.109132170677185059e+00,3.030000000000000000e+02
3.800546286283715745e+02,7.696555281859073148e+02,8.981606155605477397e+02,8.768909631372262083e+02,7.502538668407432851e+02,7.912970739018473978e+02,1.565572220219211886e+03,8.396085656462018960e+02,9.484992027282714844e+00,-6.501809358596801758e-01,-1.109132170677185059e+00,3.040000000000000000e+02
5.008199836033345491e+02,6.090164030075593473e+02,8.223928178727710474e+02,8.795781612466271326e+02,6.961972493282519281e+02,6.579083326839918300e+02,1.716628638822417997e+03,7.083662792882241774e+02,9.484992027282714844e+00,-6.501809358596801758e-01,-1.109132170677185059e+00,3.050000000000000000e+02
5.749965203001120244e+02,5.782171251202416897e+02,7.546625964339764323e+02,8.251433323085875600e+02,6.410262590683960298e+02,6.016614927587015700e+02,1.780588800490550057e+03,6.501485652944847971e+02,9.484992027282714844e+00,-6.501809358596801758e-01,-1.109132170677185059e+00,3.060000000000000000e+02
4.993713990360229218e+02,7.089496591302231536e+02,7.812902606148563791e+02,7.810331423026182165e+02,6.566108598701066512e+02,6.928998512645921437e+02,1.641792211212465190e+03,7.371338742819134495e+02,9.484992027282714844e+00,-6.501809358596801758e-01,-1.109132170677185059e+00,3.070000000000000000e+02
3.781902328423930157e+02,8.090816705053912301e+02,8.599310401717302739e+02,7.994080675632430939e+02,7.177082932398916455e+02,7.970382031249137071e+02,1.465690527620594366e+03,8.409645970051642507e+02,9.484992027282714844e+00,-6.501809358596801758e-01,-1.109132170677185059e+00,3.080000000000000000e+02
3.790961778914352180e+02,7.305029585803913506e+02,8.769426829829899361e+02,8.457529199170930951e+02,7.357803132192748308e+02,7.611161868406707072e+02,1.470088978920372028e+03,8.095747767381126323e+02,9.484992027282714844e+00,-6.501809358596801758e-01,-1.109132170677185059e+00,3.090000000000000000e+02
5.014539036450441927e+02,5.736462056228301662e+02,8.036977490510544158e+02,8.482369126654084539e+02,6.801713851424428867e+02,6.261385328011674574e+02,1.623921978954262158e+03,6.771630026476468629e+02,9.484992027282714844e+00,-6.501809358596801758e-01,-1.109132170677185059e+00,3.100000000000000000e+02
5.776106139878611430e+02,5.488433501487015747e+02,7.366646723060002842e+02,7.972798575311790046e+02,6.205134232332929969e+02,5.695731436101741565e+02,1.691492253250849899e+03,6.168624079165583680e+02,9.484992027282714844e+00,-6.501809358596801758e-01,-1.109132170677185059e+00,3.110000000000000000e+02
5.048904804597550537e+02,6.875074406435414858e+02,7.642021253687780700e+02,7.575338256543109310e+02,6.312319157194215222e+02,6.588288553266429517e+02,1.555908670465425530e+03,7.013562193409743486e+02,9.484992027282714844e+00,-6.119350194931030273e-01,-1.147378087043762207e+00,3.120000000000000000e+02
3.870523740600838210e+02,7.984622912229133362e+02,8.435499358628076152e+02,7.779077311766704952e+02,6.890434666511973774e+02,7.586492711605969816e+02,1.380747637551059597e+03,8.026453379543454503e+02,9.484992027282714844e+00,-6.119350194931030273e-01,-1.147378087043762207e+00,3.130000000000000000e+02
3.898805445279649575e+02,7.283370792026071285e+02,8.599027917939711188e+02,8.242518998957239091e+02,7.056210043830433278e+02,7.195871735992441245e+02,1.384391039636939240e+03,7.699657326645610738e+02,9.484992027282714844e+00,-6.119350194931030273e-01,-1.147378087043762207e+00,3.140000000000000000e+02
5.117271827223521541e+02,5.703042401000639074e+02,7.862401877904703724e+02,8.261439701395174779e+02,6.507664945704636921e+02,5.845235489033548220e+02,1.538771722062767367e+03,6.388804560514181503e+02,9.484992027282714844e+00,-6.119350194931030273e-01,-1.147378087043762207e+00,3.150000000000000000e+02
5.863492340358134243e+02,5.360855968465366459e+02,7.205257383667958493e+02,7.732356472650535579e+02,5.945652037787986046e+02,5.287234685785770125e+02,1.608011282205043244e+03,5.816876943761126313e+02,9.484992027282714844e+00,-6.119350194931030273e-01,-1.147378087043762207e+00,3.160000000000000000e+02
5.126693135771274683e+02,6.656025641298983828e+02,7.484871500046865549e+02,7.298633316987907165e+02,6.095167577509637340e+02,6.192141283538403513e+02,1.474193609315996582e+03,6.690759001103251649e+02,9.484992027282714844e+00,-6.119350194931030273e-01,-1.147378087043762207e+00,3.170000000000000000e+02
3.939534620747799636e+02,7.714546714091047761e+02,8.242516147511341842e+02,7.475318898029327102e+02,6.693173594030595268e+02,7.243522549770568730e+02,1.300583033913018880e+03,7.732756576113570191e+02,9.484992027282714844e+00,-6.119350194931030273e-01,-1.147378087043762207e+00,3.180000000000000000e+02
3.951782430741659482e+02,6.969442897268818342e+02,8.345860863956804678e+02,7.939965204737745808e+02,6.853809338007740735e+02,6.950880991135636577e+02,1.306101126025423582e+03,7.453243439771213161e+02,9.484992027282714844e+00,-6.119350194931030273e-01,-1.147378087043762207e+00,3.190000000000000000e+02
5.154973660192626994e+02,5.341398410528054228e+02,7.558908621591072006e+02,7.970762380357809889e+02,6.295524880815210054e+02,5.684730474929383490e+02,1.462578069065501040e+03,6.201174927713436773e+02,9.484992027282714844e+00,-6.119350194931030273e-01,-1.147378087043762207e+00,3.200000000000000000e+02
5.890670699416659772e+02,4.986676348587097891e+02,6.862897525590051373e+02,7.446839418514064164e+02,5.722724530165760370e+02,5.159591315625257266e+02,1.533567890532700403e+03,5.669725953507477243e+02,9.484992027282714844e+00,-6.119350194931030273e-01,-1.147378087043762207e+00,3.210000000000000000e+02
5.134453158508113120e+02,6.314563617236126447e+02,7.103829781830572756e+02,7.027733987209612678e+02,5.846504538290937489e+02,6.079096286703534133e+02,1.401293667817000824e+03,6.557062984261683596e+02,9.484992027282714844e+00,-6.119350194931030273e-01,-1.147378087043762207e+00,3.220000000000000000e+02
3.916306129745935323e+02,7.407596363703487441e+02,7.835541772092910833e+02,7.244791669116311823e+02,6.408671744489547564e+02,7.163809031880518887e+02,1.229471545305379550e+03,7.603539343440970697e+02,9.484992027282714844e+00,-6.119350194931030273e-01,-1.147378087043762207e+00,3.230000000000000000e+02
3.907416066687947023e+02,6.675528672211257799e+02,7.935764797112678934e+02,7.757939845244472963e+02,6.547071682636851619e+02,6.908476167959524901e+02,1.236611034480367380e+03,7.325488657748719561e+02,9.484992027282714844e+00,-6.119350194931030273e-01,-1.147378087043762207e+00,3.240000000000000000e+02
5.109050638497647014e+02,5.063850211505850893e+02,7.147920419477923133e+02,7.821721165945818939e+02,5.987218799853944802e+02,5.661042317674218793e+02,1.393663503747244249e+03,6.060689874169001996e+02,9.484992027282714844e+00,-6.119350194931030273e-01,-1.147378087043762207e+00,3.250000000000000000e+02
5.844231688368236064e+02,4.742638791409444821e+02,6.441428541466266324e+02,7.317535336907822057e+02,5.423286589136514522e+02,5.140355047409466351e+02,1.464342470661140396e+03,5.507726294055319158e+02,9.484992027282714844e+00,-6.119350194931030273e-01,-1.147378087043762207e+00,3.260000000000000000e+02
5.076182723205492948e+02,6.099179952094527835e+02,6.691008855472500727e+02,6.913864023428686778e+02,5.570603449637055746e+02,6.047213487057088059e+02,1.331976459045283264e+03,6.384994296906152158e+02,9.484992027282714844e+00,-6.119350194931030273e-01,-1.147378087043762207e+00,3.270000000000000000e+02
3.845082214019130333e+02,7.202196682692992908e+02,7.474936787996630301e+02,7.135197679517077631e+02,6.185075156145685469e+02,7.086960425066281459e+02,1.160567427581278025e+03,7.432395531964466500e+02,9.484992027282714844e+00,-6.119350194931030273e-01,-1.147378087043762207e+00,3.280000000000000000e+02
3.828441473354687332e+02,6.475522828186185507e+02,7.649769176970912667e+02,7.633519309804760269e+02,6.392986066921657766e+02,6.770215467260350124e+02,1.167983960309276881e+03,7.147758628934534499e+02,9.484992027282714844e+00,-6.119350194931030273e-01,-1.147378087043762207e+00,3.290000000000000000e+02
5.024861771360447165e+02,4.877030731477061636e+02,6.926596239657992555e+02,7.667702219671700732e+02,5.884817576054192614e+02,5.481916114878440567e+02,1.325857883544638753e+03,5.865725300718659128e+02,9.484992027282714844e+00,-6.119350194931030273e-01,-1.147378087043762207e+00,3.300000000000000000e+02
5.767633044920294196e+02,4.569124701637156249e+02,6.270169880428984470e+02,7.127221993163875595e+02,5.332836045963194920e+02,4.943743949801391864e+02,1.398831626727391267e+03,5.294261630020810117e+02,9.484992027282714844e+00,-6.119350194931030273e-01,-1.147378087043762207e+00,3.310000000000000000e+02
5.031342119123873999e+02,5.925850525573259802e+02,6.556574718337033119e+02,6.691493894576924504e+02,5.453944293515014579e+02,5.831534255661936186e+02,1.271244913190806983e+03,6.148196767085901229e+02,9.484992027282714844e+00,-6.119350194931030273e-01,-1.147378087043762207e+00,3.320000000000000000e+02
3.841728309972895659e+02,7.021834042823284108e+02,7.351402017743021133e+02,6.902304062580515165e+02,6.014511230796633754e+02,6.844385180245772062e+02,1.103615001428843243e+03,7.160258021632216696e+02,9.484992027282714844e+00,-6.119350194931030273e-01,-1.147378087043762207e+00,3.330000000000000000e+02
3.858027726048312616e+02,6.311025661898456747e+02,7.513630455958627863e+02,7.418757740812870907e+02,6.160750250931159826e+02,6.498119527620074223e+02,1.111610977794494829e+03,6.838021018553918111e+02,9.484992027282714844e+00,-6.119350194931030273e-01,-1.147378087043762207e+00,3.340000000000000000e+02
5.088640792957739905e+02,4.765466757331923873e+02,6.784945595503559161e+02,7.485834184295781597e+02,5.612854104950893088e+02,5.169034080130149960e+02,1.269027932607423281e+03,5.528652339352011040e+02,9.484992027282714844e+00,-6.119350194931030273e-01,-1.147378087043762207e+00,3.350000000000000000e+02
5.879002333308308152e+02,4.508928430552368809e+02,6.147338551080756588e+02,6.976082430829155783e+02,5.057193399600764678e+02,4.581755232323484961e+02,1.344340015059715370e+03,4.940251044228680257e+02,9.484992027282714844e+00,-6.119350194931030273e-01,-1.147378087043762207e+00,3.360000000000000000e+02
5.185674054903065553e+02,5.871958048132946715e+02,6.457495610067926464e+02,6.559670619861863088e+02,5.195752268819087476e+02,5.443079209569659724e+02,1.219918204678542679e+03,5.791893286058802914e+02,9.484992027282714844e+00,-6.119350194931030273e-01,-1.109132170677185059e+00,3.370000000000000000e+02
4.013456603272206848e+02,6.948936861350957770e+02,7.261552929289682652e+02,6.766740627835679334e+02,5.777346764945868927e+02,6.468443685643869685e+02,1.054330052356861415e+03,6.827920136104003177e+02,9.484992027282714844e+00,-6.119350194931030273e-01,-1.109132170677185059e+00,3.380000000000000000e+02
4.028962174945627339e+02,6.231879246735879860e+02,7.424901713445578935e+02,7.252971713463921333e+02,5.946475443426643324e+02,6.153858771702289232e+02,1.063693434393033385e+03,6.546957553077591001e+02,9.484992027282714844e+00,-6.119350194931030273e-01,-1.109132170677185059e+00,3.390000000000000000e+02
5.252191641066237935e+02,4.670004252416765667e+02,6.692758799671610177e+02,7.289448786133289104e+02,5.418556998428757652e+02,4.859702197896658618e+02,1.223213189034038805e+03,5.267301291743569891e+02,9.484992027282714844e+00,-6.119350194931030273e-01,-1.109132170677185059e+00,3.400000000000000000e+02
6.021449820174311753e+02,4.354276918053546979e+02,6.030794161666453874e+02,6.779448682848233148e+02,4.865919774561552913e+02,4.317073503411484126e+02,1.301059159505573916e+03,4.689056252632435644e+02,9.484992027282714844e+00,-6.119350194931030273e-01,-1.109132170677185059e+00,3.410000000000000000e+02
5.291172065251666936e+02,5.654787276428578480e+02,6.295353555330912059e+02,6.386435683447925840e+02,4.995525913867895724e+02,5.228459211660156143e+02,1.178532412998683867e+03,5.553406064251103089e+02,9.484992027282714844e+00,-6.119350194931030273e-01,-1.109132170677185059e+00,3.420000000000000000e+02
4.083305994710390223e+02,6.711495818615330791e+02,7.066926935712763225e+02,6.614921831874962663e+02,5.583492171106590831e+02,6.287174921728219488e+02,1.014263440690512653e+03,6.620010524013414397e+02,9.484992027282714844e+00,-6.119350194931030273e-01,-1.109132170677185059e+00,3.430000000000000000e+02
4.074745545001642313e+02,5.980831568195317232e+02,7.234107683472757344e+02,7.120193463078467175e+02,5.781610033949691569e+02,5.982580874724590103e+02,1.025029829551291186e+03,6.379215224081744964e+02,9.484992027282714844e+00,-6.119350194931030273e-01,-1.109132170677185059e+00,3.440000000000000000e+02
5.278484387387215975e+02,4.373098113632004242e+02,6.516476310034449853e+02,7.183082548767197295e+02,5.277366252603933390e+02,4.689843586037386558e+02,1.186120456005388405e+03,5.138276873146096477e+02,9.484992027282714844e+00,-6.119350194931030273e-01,-1.109132170677185059e+00,3.450000000000000000e+02
6.031386548369118827e+02,4.025193070123568759e+02,5.840291884238649800e+02,6.689392878293729154e+02,4.722109541832942341e+02,4.150448723360314034e+02,1.265362836776461336e+03,4.594116598143518786e+02,9.484992027282714844e+00,-6.119350194931030273e-01,-1.109132170677185059e+00,3.460000000000000000e+02
5.295323092590624583e+02,5.352130244290128758e+02,6.060266587038822763e+02,6.281395911398140015e+02,4.836540499125148926e+02,5.070111212537958636e+02,1.143795218140643556e+03,5.484578837895351171e+02,9.484992027282714844e+00,-6.119350194931030273e-01,-1.109132170677185059e+00,3.470000000000000000e+02
4.086449143988793367e+02,6.448403327654377790e+02,6.785677492228314804e+02,6.480029975845900481e+02,5.418200791027484229e+02,6.151027555499385926e+02,9.800288070278329542e+02,6.568678392734400404e+02,9.484992027282714844e+00,-6.119350194931030273e-01,-1.109132170677185059e+00,3.480000000000000000e+02
4.066232762530489708e+02,5.715052124866706436e+02,6.924050906170850794e+02,6.971383311020108522e+02,5.624515619331286871e+02,5.884270121082518017e+02,9.911583783653913997e+02,6.344816373736466630e+02,9.484992027282714844e+00,-6.119350194931030273e-01,-1.109132170677185059e+00,3.490000000000000000e+02
5.249172742731680046e+02,4.080948208306617744e+02,6.195264618283617892e+02,7.035247920684487326e+02,5.145308157167528407e+02,4.622493889630786725e+02,1.152862536769680446e+03,5.124730859995142964e+02,9.484992027282714844e+00,-6.119350194931030273e-01,-1.109132170677185059e+00,3.500000000000000000e+02
5.989113752101911814e+02,3.717169612673205847e+02,5.526100011225171329e+02,6.537349678082173341e+02,4.631476404141139938e+02,4.081548807333929290e+02,1.233017277652746998e+03,4.594967057522990217e+02,9.484992027282714844e+00,-6.119350194931030273e-01,-1.109132170677185059e+00,3.510000000000000000e+02
5.253119901396712521e+02,5.036511541580584890e+02,5.775509060760268767e+02,6.121882577357537230e+02,4.777791271565656643e+02,4.972349668981369177e+02,1.112603305413023918e+03,5.478360774338580086e+02,9.484992027282714844e+00,-6.119350194931030273e-01,-1.109132170677185059e+00,3.520000000000000000e+02
4.046400876622792566e+02,6.144187854500742105e+02,6.546047028695902554e+02,6.328768351994222030e+02,5.344165838619446731e+02,6.027155859667436744e+02,9.503830820456932997e+02,6.527977654369205993e+02,9.484992027282714844e+00,-6.119350194931030273e-01,-1.109132170677185059e+00,3.530000000000000000e+02
4.025406194832830806e+02,5.472147523365456436e+02,6.724488005057937698e+02,6.846236470760632074e+02,5.488232977877196390e+02,5.756543600661643723e+02,9.633917663664033171e+02,6.248336787082953379e+02,9.484992027282714844e+00,-6.119350194931030273e-01,-1.109132170677185059e+00,3.540000000000000000e+02
5.213080958916762029e+02,3.925403077697810659e+02,6.013306493685959140e+02,6.937343378289733664e+02,4.942177596142282709e+02,4.508012341030480457e+02,1.126878821440390311e+03,4.969223169221913849e+02,9.484992027282714844e+00,-6.119350194931030273e-01,-1.109132170677185059e+00,3.550000000000000000e+02
5.969980428983835736e+02,3.602793893385678530e+02,5.343466911151408567e+02,6.456405476031577564e+02,4.391006460561693530e+02,3.981596358451934066e+02,1.208592557929281611e+03,4.399425891366299766e+02,9.484992027282714844e+00,-6.119350194931030273e-01,-1.109132170677185059e+00,3.560000000000000000e+02
5.260266834518697578e+02,4.901907423194134026e+02,5.596141452690790175e+02,6.047780206834067940e+02,4.533527687279638485e+02,4.872511525305235409e+02,1.089747378409170778e+03,5.268707315561441646e+02,9.484992027282714844e+00,-6.119350194931030273e-01,-1.109132170677185059e+00,3.570000000000000000e+02
4.083941738717840053e+02,5.989951130649533297e+02,6.389004367347733933e+02,6.250686367912567221e+02,5.126550250396612682e+02,5.901733595214682282e+02,9.289231320689723361e+02,6.315986151572906238e+02,9.484992027282714844e+00,-6.119350194931030273e-01,-1.109132170677185059e+00,3.580000000000000000e+02
4.093135327768541174e+02,5.339417655847501010e+02,6.599730261060249177e+02,6.750685529815091286e+02,5.318471241833176464e+02,5.584685658564485493e+02,9.427341814730025362e+02,6.030789962460985407e+02,9.484992027282714844e+00,-6.119350194931030273e-01,-1.109132170677185059e+00,3.590000000000000000e+02
5.305303515136911301e+02,3.830111932357976912e+02,5.912952774151053745e+02,6.817288306031987304e+02,4.809510232655011350e+02,4.290116490596265066e+02,1.106769759442235227e+03,4.740143642493931111e+02,9.484992027282714844e+00,-6.119350194931030273e-01,-1.109132170677185059e+00,3.600000000000000000e+02
6.079850434915715596e+02,3.535496568082380691e+02,5.257672332671136246e+02,6.319122193654984585e+02,4.258324295572892879e+02,3.729614438795979368e+02,1.189689431556806085e+03,4.152454458900647296e+02,9.484992027282714844e+00,-6.119350194931030273e-01,-1.109132170677185059e+00,3.610000000000000000e+02
5.386460624650499085e+02,4.864127796849134029e+02,5.523779451485024765e+02,5.906526683861229685e+02,4.381303071500442456e+02,4.589585944260907127e+02,1.071186428945613443e+03,4.998792611421267793e+02,9.484992027282714844e+00,-6.119350194931030273e-01,-1.109132170677185059e+00,3.620000000000000000e+02
4.229614899787411559e+02,5.981442852580585168e+02,6.326089495773412636e+02,6.110801373571666772e+02,4.966540494890650734e+02,5.591925431017443771e+02,9.106985302792600123e+02,6.034283947781368624e+02,9.484992027282714844e+00,-6.119350194931030273e-01,-1.109132170677185059e+00,3.630000000000000000e+02
4.253825244589243084e+02,5.325085309848400357e+02,6.531659771524791722e+02,6.611095214810993639e+02,5.156697393570357235e+02,5.276619895580806769e+02,9.242477654755639378e+02,5.766120155459648231e+02,9.408499717712402344e+00,-5.354431271553039551e-01,-1.147378087043762207e+00,3.640000000000000000e+02
5.470726650687865913e+02,3.763956749115241109e+02,5.826765942521742545e+02,6.684282164494215976e+02,4.629801115592563292e+02,4.025022470628755400e+02,1.087327652800449869e+03,4.509689504285706789e+02,9.408499717712402344e+00,-5.354431271553039551e-01,-1.147378087043762207e+00,3.650000000000000000e+02
6.243835449123871513e+02,3.409335848067275947e+02,5.147122130904826918e+02,6.207807069074988249e+02,4.051231357150827534e+02,3.530327498540063971e+02,1.168625835268438095e+03,3.944496997617388843e+02,9.408499717712402344e+00,-5.354431271553039551e-01,-1.147378087043762207e+00,3.660000000000000000e+02
5.544103683100838680e+02,4.697940576906548813e+02,5.375415351364281378e+02,5.822711221105782897e+02,4.157223640337324468e+02,4.460436380119281239e+02,1.049461563853372354e+03,4.798654755080788163e+02,9.408499717712402344e+00,-5.354431271553039551e-01,-1.147378087043762207e+00,3.670000000000000000e+02
4.364204748752526939e+02,5.780148385306456476e+02,6.122863940910974634e+02,6.039616204318881501e+02,4.736010553248779615e+02,5.531886049370514229e+02,8.877227813469362445e+02,5.848928718417737400e+02,9.408499717712402344e+00,-5.354431271553039551e-01,-1.147378087043762207e+00,3.680000000000000000e+02
4.345505793793709017e+02,5.084557361677143490e+02,6.283901748263815534e+02,6.533485802117502317e+02,4.926857997419356252e+02,5.265487135152798146e+02,8.997634792509634281e+02,5.606922606061853003e+02,9.408499717712402344e+00,-5.354431271553039551e-01,-1.147378087043762207e+00,3.690000000000000000e+02
5.514124401108274469e+02,3.506348155841187690e+02,5.578760575415872154e+02,6.598760816477952176e+02,4.418441236205762834e+02,4.014927708886389155e+02,1.061801230558849056e+03,4.372363880701886956e+02,9.408499717712402344e+00,-5.354431271553039551e-01,-1.147378087043762207e+00,3.700000000000000000e+02
6.249446944342344068e+02,3.169743046018847963e+02,4.935860305149326450e+02,6.122133543840027414e+02,3.876083749993413221e+02,3.479549812420154922e+02,1.143391208207234740e+03,3.823899898059316911e+02,9.408499717712402344e+00,-5.354431271553039551e-01,-1.147378087043762207e+00,3.710000000000000000e+02
5.526539420805202099e+02,4.485070645703744958e+02,5.197348945425037527e+02,5.730997488598804921e+02,4.014021826765965670e+02,4.365044633298166445e+02,1.026013991621934110e+03,4.702632513939242926e+02,9.408499717712402344e+00,-5.354431271553039551e-01,-1.147378087043762207e+00,3.720000000000000000e+02
4.336387845301505877e+02,5.585565779809985543e+02,5.951510750742017990e+02,5.929794603623377043e+02,4.606469995515726623e+02,5.411012133570402511e+02,8.666230114738282282e+02,5.780987905429647071e+02,9.408499717712402344e+00,-5.354431271553039551e-01,-1.147378087043762207e+00,3.730000000000000000e+02
4.319199751493142685e+02,4.911275594623875804e+02,6.102500551284610992e+02,6.413536462884439970e+02,4.801861664675889187e+02,5.135527116672456032e+02,8.805187628024577862e+02,5.556262274772234377e+02,9.408499717712402344e+00,-5.354431271553039551e-01,-1.147378087043762207e+00,3.740000000000000000e+02
5.500387251616630238e+02,3.347970921296655433e+02,5.384880253185838228e+02,6.487253779255479458e+02,4.302198053057727520e+02,3.887091791361308424e+02,1.043810266982749454e+03,4.333492918606352760e+02,9.408499717712402344e+00,-5.354431271553039551e-01,-1.147378087043762207e+00,3.750000000000000000e+02
6.259989153423812240e+02,2.985330017595551908e+02,4.732066541241074447e+02,6.014117217407765565e+02,3.778768830675471690e+02,3.359605146268659155e+02,1.126484193410084117e+03,3.803113831386654056e+02,9.408499717712402344e+00,-5.354431271553039551e-01,-1.147378087043762207e+00,3.760000000000000000e+02
5.569909137314098189e+02,4.242659596877492731e+02,4.991495160947524710e+02,5.604829378804133739e+02,3.945642367029649904e+02,4.246589067225067993e+02,1.009861860873250407e+03,4.694870160258724354e+02,9.408499717712402344e+00,-5.354431271553039551e-01,-1.147378087043762207e+00,3.770000000000000000e+02
4.406141165028820978e+02,5.313847428862136439e+02,5.757116448037631926e+02,5.785318423162971158e+02,4.566541913611290511e+02,5.283821815984993009e+02,8.501995277751702815e+02,5.763504671124828747e+02,9.408499717712402344e+00,-5.354431271553039551e-01,-1.147378087043762207e+00,3.780000000000000000e+02
4.393460962340031983e+02,4.669532354580078390e+02,5.929616704782529268e+02,6.267842809850117192e+02,4.775059044220615760e+02,4.999101771626374102e+02,8.628042229334387230e+02,5.512088588028636877e+02,9.408499717712402344e+00,-5.354431271553039551e-01,-1.147378087043762207e+00,3.790000000000000000e+02
5.558302884180156980e+02,3.167718542644215631e+02,5.233030737661683816e+02,6.336525972403687774e+02,4.270510106437723152e+02,3.744242608112326707e+02,1.025049785250026616e+03,4.259521424179110909e+02,9.408499717712402344e+00,-5.354431271553039551e-01,-1.147378087043762207e+00,3.800000000000000000e+02
6.292705843924486544e+02,2.874514007306934218e+02,4.594159318898018682e+02,5.838907820130480104e+02,3.728999766700144392e+02,3.206275267271485063e+02,1.108275332395525766e+03,3.694766392720630392e+02,9.408499717712402344e+00,-5.354431271553039551e-01,-1.147378087043762207e+00,3.810000000000000000e+02
5.570947590865398524e+02,4.211216841578716412e+02,4.863918554418487474e+02,5.408337168407015270e+02,3.864121393318637274e+02,4.080239544964788365e+02,9.936978986804897431e+02,4.547834818540723063e+02,9.408499717712402344e+00,-5.354431271553039551e-01,-1.147378087043762207e+00,3.820000000000000000e+02
4.367319060523877852e+02,5.353301991872867802e+02,5.645782053113944130e+02,5.586837649254957796e+02,4.447687040702512604e+02,5.111718971792724915e+02,8.361975878071825719e+02,5.591719781165083987e+02,9.408499717712402344e+00,-5.354431271553039551e-01,-1.147378087043762207e+00,3.830000000000000000e+02
4.317205802631506231e+02,4.740016668401367497e+02,5.841818330440873979e+02,6.065642405780236004e+02,4.637720889522606740e+02,4.830018042685405817e+02,8.502345568496384658e+02,5.341594265488238307e+02,9.408499717712402344e+00,-5.354431271553039551e-01,-1.147378087043762207e+00,3.840000000000000000e+02
5.460846336834656540e+02,3.242606074059149250e+02,5.160866312338621356e+02,6.116250300760293612e+02,4.141921899678127375e+02,3.580967414810729679e+02,1.013651691381819546e+03,4.102557794832391664e+02,9.408499717712402344e+00,-5.354431271553039551e-01,-1.147378087043762207e+00,3.850000000000000000e+02
6.189181058302929159e+02,2.963705965560802724e+02,4.514162704271875555e+02,5.610229412639746442e+02,3.612632178671774454e+02,3.050803834930266021e+02,1.098157229008997092e+03,3.545129832872335101e+02,9.408499717712402344e+00,-5.354431271553039551e-01,-1.147378087043762207e+00,3.860000000000000000e+02
5.466480931564874481e+02,4.312902752895606682e+02,4.758592501169187017e+02,5.198122219229189795e+02,3.747343749533611117e+02,3.938260037192667369e+02,9.843121952157089254e+02,4.399902674704353558e+02,9.408499717712402344e+00,-5.354431271553039551e-01,-1.147378087043762207e+00,3.870000000000000000e+02
4.263306199460494099e+02,5.429942591494400403e+02,5.518325123320173589e+02,5.405132002863538219e+02,4.334014145094261039e+02,4.986163241126923822e+02,8.268536356580734719e+02,5.450801427714977763e+02,9.408499717712402344e+00,-5.354431271553039551e-01,-1.147378087043762207e+00,3.880000000000000000e+02
4.205840400253800908e+02,4.773537811481219251e+02,5.708245618566870689e+02,5.906550683568493696e+02,4.545079216779049602e+02,4.711412212298600934e+02,8.397748372289643157e+02,5.216103113655044581e+02,9.408499717712402344e+00,-5.354431271553039551e-01,-1.147378087043762207e+00,3.890000000000000000e+02
5.338331354109832318e+02,3.258206779854590422e+02,5.032191821254527895e+02,5.975303476656699786e+02,4.068836322349234251e+02,3.444068521401641192e+02,1.003757430048193783e+03,3.989579236936770030e+02,9.408499717712402344e+00,-5.354431271553039551e-01,-1.147378087043762207e+00,3.900000000000000000e+02
6.043136582009901758e+02,2.981927393511650735e+02,4.392464344879990676e+02,5.484391371017190977e+02,3.540550535277507151e+02,2.881695444447905174e+02,1.089075335387053201e+03,3.433339575333448010e+02,9.408499717712402344e+00,-5.354431271553039551e-01,-1.147378087043762207e+00,3.910000000000000000e+02
5.283138191987964092e+02,4.327898621996137081e+02,4.641337772795086494e+02,5.079737837595093879e+02,3.664856855952384649e+02,3.762874987729228451e+02,9.745374841571610887e+02,4.286076147535204655e+02,9.408499717712402344e+00,-5.354431271553039551e-01,-1.147378087043762207e+00,3.920000000000000000e+02
4.041988513291580603e+02,5.455236585067978012e+02,5.409008726925676456e+02,5.291442288383695995e+02,4.242557843251925078e+02,4.858034851759075536e+02,8.152849689885624684e+02,5.350932992014786578e+02,9.408499717712402344e+00,-5.354431271553039551e-01,-1.147378087043762207e+00,3.930000000000000000e+02
