F3,F4,C3,C4,P3,P4,Cz,Pz,Accel_x,Accel_y,Accel_z,Sample
-4.547473508864641190e-13,1.546140993013978004e-11,-1.045918907038867474e-11,-6.366462912410497665e-12,-2.046363078989088535e-12,-5.229594535194337368e-12,-1.364242052659392357e-11,-1.318767317570745945e-11,9.523238182067871094e+00,-6.119350194931030273e-01,-1.109132170677185059e+00,0.000000000000000000e+00
-7.225440217929053688e+02,-4.804961637744884229e+02,-3.514198204708734465e+02,-4.772026382546641798e+02,-4.378632018809448709e+02,-6.147861756472366324e+02,-1.227572372462571366e+03,-1.973745117796399882e+02,9.523238182067871094e+00,-6.119350194931030273e-01,-1.109132170677185059e+00,1.000000000000000000e+00
-1.607294763449622224e+03,-1.070544560730594640e+03,-7.542787109902417342e+02,-7.423622105700201246e+02,-8.638381353262795983e+02,-1.196746747664467648e+03,-2.503163779750324466e+03,-5.990615604374593204e+02,9.523238182067871094e+00,-6.119350194931030273e-01,-1.109132170677185059e+00,2.000000000000000000e+00
-2.199200339872456880e+03,-1.699517811204075770e+03,-1.200579714930865748e+03,-8.818964185049285334e+02,-1.289077960275213854e+03,-1.745728927244953866e+03,-3.463958147168648793e+03,-1.144781233665003583e+03,9.523238182067871094e+00,-6.119350194931030273e-01,-1.109132170677185059e+00,3.000000000000000000e+00
-2.251167146152087298e+03,-2.135127347840350012e+03,-1.586289772207715941e+03,-1.075221025270429209e+03,-1.672576726204913030e+03,-2.182379914696242395e+03,-4.045287300402971596e+03,-1.565698533923478180e+03,9.523238182067871094e+00,-6.119350194931030273e-01,-1.109132170677185059e+00,4.000000000000000000e+00
-2.308590456805219674e+03,-2.258269752980917929e+03,-1.797575601372733217e+03,-1.287552417850993152e+03,-1.923105750715611066e+03,-2.384428458653350390e+03,-4.755592089026624308e+03,-1.706443672058710945e+03,9.523238182067871094e+00,-6.119350194931030273e-01,-1.109132170677185059e+00,5.000000000000000000e+00
-2.806626890406469556e+03,-2.265935484079433536e+03,-1.859472227721286799e+03,-1.374717768035085783e+03,-2.035137372569577565e+03,-2.422755588890588115e+03,-5.877504956515054801e+03,-1.709373167811163057e+03,9.523238182067871094e+00,-6.119350194931030273e-01,-1.109132170677185059e+00,6.000000000000000000e+00
-3.340983564925677456e+03,-2.456865307489881616e+03,-1.932776139560038246e+03,-1.354451595081698315e+03,-2.137160445417329811e+03,-2.554530188273995918e+03,-7.018060907532887541e+03,-1.827532059939962664e+03,9.523238182067871094e+00,-6.119350194931030273e-01,-1.109132170677185059e+00,7.000000000000000000e+00
-3.598357940208372838e+03,-2.818876834324879383e+03,-2.106103466930535888e+03,-1.361463403843301649e+03,-2.314255439111497253e+03,-2.854514424347005843e+03,-7.940965468581616733e+03,-2.093059251610274259e+03,9.523238182067871094e+00,-6.119350194931030273e-01,-1.109132170677185059e+00,8.000000000000000000e+00
-4.031041656732166302e+03,-3.042542671810454522e+03,-2.278546375244576666e+03,-1.432899728354167110e+03,-2.488629014959009510e+03,-3.086178868601366958e+03,-8.852766110137470605e+03,-2.287940675582533913e+03,9.523238182067871094e+00,-6.119350194931030273e-01,-1.109132170677185059e+00,9.000000000000000000e+00
-4.864612095291178775e+03,-2.987285612191756627e+03,-2.321984806501530329e+03,-1.496740351154496921e+03,-2.563977726703890767e+03,-3.076366015082236117e+03,-9.563594979147172126e+03,-2.263825019576871455e+03,9.523238182067871094e+00,-6.119350194931030273e-01,-1.109132170677185059e+00,1.000000000000000000e+01
-5.635037566117258393e+03,-2.879288871486805874e+03,-2.261017339396552416e+03,-1.488744467916369786e+03,-2.561513678675092706e+03,-2.973431029301991657e+03,-9.765709635735584015e+03,-2.144526138318035009e+03,9.523238182067871094e+00,-6.119350194931030273e-01,-1.109132170677185059e+00,1.100000000000000000e+01
-6.263318749096554711e+03,-2.958818912635255856e+03,-2.217267296933624493e+03,-1.402756675596612467e+03,-2.551890063320621721e+03,-2.998055209302258390e+03,-1.001789788674594456e+04,-2.138980400626817755e+03,9.523238182067871094e+00,-6.119350194931030273e-01,-1.109132170677185059e+00,1.200000000000000000e+01
-7.154598264602833297e+03,-3.172650096286212829e+03,-2.262070109918842718e+03,-1.311441373539589449e+03,-2.586767963478306228e+03,-3.158299748066101529e+03,-1.071782753297473573e+04,-2.278558718289439639e+03,9.523238182067871094e+00,-6.119350194931030273e-01,-1.109132170677185059e+00,1.300000000000000000e+01
-8.035656784078915734e+03,-3.301356713193153155e+03,-2.355543855006700142e+03,-1.314421897877086849e+03,-2.684107453455028917e+03,-3.299872839623905293e+03,-1.106711628049822502e+04,-2.407911468894661084e+03,9.523238182067871094e+00,-6.119350194931030273e-01,-1.109132170677185059e+00,1.400000000000000000e+01
-8.342951487293352329e+03,-3.215638756356232079e+03,-2.368036958183020488e+03,-1.366718790674909997e+03,-2.749432204630035812e+03,-3.276616971825133987e+03,-1.101081014965704344e+04,-2.362758800734215583e+03,9.523238182067871094e+00,-6.119350194931030273e-01,-1.109132170677185059e+00,1.500000000000000000e+01
-8.462516826964447318e+03,-3.007139751170716863e+03,-2.226394336295409175e+03,-1.298066784863607381e+03,-2.654175183570479021e+03,-3.098807343464445694e+03,-1.193856398085701039e+04,-2.166171211358477649e+03,9.523238182067871094e+00,-6.119350194931030273e-01,-1.109132170677185059e+00,1.600000000000000000e+01
-8.911156134544178713e+03,-2.951489826834985251e+03,-2.081466864664288096e+03,-1.118171313204820308e+03,-2.514190495192498929e+03,-3.003814810995112566e+03,-1.346662626644812008e+04,-2.063849270939125745e+03,9.523238182067871094e+00,-6.119350194931030273e-01,-1.109132170677185059e+00,1.700000000000000000e+01
-9.294733972934682242e+03,-3.172162917543642834e+03,-2.129630912607187383e+03,-1.040788742185098499e+03,-2.574755736937138863e+03,-3.172999829212336408e+03,-1.345023016600215487e+04,-2.212445570616519944e+03,9.523238182067871094e+00,-6.119350194931030273e-01,-1.109132170677185059e+00,1.800000000000000000e+01
-9.534249869956438488e+03,-3.339876883610793811e+03,-2.241564788376892466e+03,-1.083543220867064974e+03,-2.719561636220672881e+03,-3.352721778891666872e+03,-1.284582918664709541e+04,-2.363822028978470371e+03,9.523238182067871094e+00,-6.119350194931030273e-01,-1.109132170677185059e+00,1.900000000000000000e+01
-1.017347437048253414e+04,-3.108616674151532607e+03,-2.129926806955426400e+03,-1.027506941558789322e+03,-2.615593332754142921e+03,-3.187831935373170836e+03,-1.458570787247065346e+04,-2.199614444146683581e+03,9.523238182067871094e+00,-6.119350194931030273e-01,-1.109132170677185059e+00,2.000000000000000000e+01
-1.054038021869692056e+04,-2.783916713548338976e+03,-1.895504690783413480e+03,-8.728665165898253235e+02,-2.399267806242476581e+03,-2.903212900366152098e+03,-1.681139757923163052e+04,-1.919820614057940020e+03,9.523238182067871094e+00,-6.119350194931030273e-01,-1.109132170677185059e+00,2.100000000000000000e+01
-9.791907410402400274e+03,-2.882880666133431532e+03,-1.873048152303297456e+03,-8.246198174504813778e+02,-2.463201945588590206e+03,-2.973301150216580936e+03,-1.575748379061661763e+04,-1.947805701728980011e+03,9.523238182067871094e+00,-6.119350194931030273e-01,-1.109132170677185059e+00,2.200000000000000000e+01
-9.878920939278366859e+03,-3.143368809147259071e+03,-1.951834391634858093e+03,-7.870650183521056533e+02,-2.583549399430169615e+03,-3.188743900745856081e+03,-1.489616243120015861e+04,-2.126559930068214726e+03,9.523238182067871094e+00,-6.119350194931030273e-01,-1.109132170677185059e+00,2.300000000000000000e+01
-1.248612238935066853e+04,-2.949292089301855412e+03,-1.778362753468604069e+03,-5.459433425837889899e+02,-2.303264567979039384e+03,-3.008247056644216173e+03,-1.923484773735675117e+04,-1.986935047878038176e+03,9.523238182067871094e+00,-6.119350194931030273e-01,-1.109132170677185059e+00,2.400000000000000000e+01
-1.346437492602723432e+04,-2.660670019081381724e+03,-1.622683910946953347e+03,-4.475603215259874332e+02,-2.132230126815805761e+03,-2.782622892757545742e+03,-2.164667412924583550e+04,-1.775109380317599516e+03,9.523238182067871094e+00,-6.119350194931030273e-01,-1.109132170677185059e+00,2.500000000000000000e+01
-7.277938809273216066e+03,-3.279747985658081689e+03,-2.136377626953969866e+03,-1.051038746503977791e+03,-3.038115063629996257e+03,-3.430986599862078037e+03,-1.043419103519296550e+04,-2.242668092090460050e+03,9.523238182067871094e+00,-6.119350194931030273e-01,-1.109132170677185059e+00,2.600000000000000000e+01
3.146274160975376617e+03,-4.724917254849821802e+03,-3.184485333051745329e+03,-2.083865521203999378e+03,-4.705495201823498064e+03,-4.831580065062262292e+03,9.705238727323423518e+03,-3.339111850876613516e+03,9.446745872497558594e+00,-6.119350194931030273e-01,-1.109132170677185059e+00,2.700000000000000000e+01
8.959669022478186889e+03,-5.739328306662144314e+03,-3.869778019951909300e+03,-2.655685821004599347e+03,-5.729698341019025975e+03,-5.789265547474757113e+03,2.130906935170539873e+04,-4.120028959667698473e+03,9.446745872497558594e+00,-6.119350194931030273e-01,-1.109132170677185059e+00,2.800000000000000000e+01
7.825166595813532695e+03,-5.687509108757305512e+03,-3.817644438211145371e+03,-2.535204541132275608e+03,-5.627910695325242159e+03,-5.746885632919979798e+03,1.909806606097083568e+04,-4.098268762403679830e+03,9.446745872497558594e+00,-6.119350194931030273e-01,-1.109132170677185059e+00,2.900000000000000000e+01
5.679763594114192529e+03,-5.232647561984980712e+03,-3.533425790458121810e+03,-2.308776807459830707e+03,-5.264982304606551224e+03,-5.353325031362242044e+03,1.439608317080825509e+04,-3.755893637798862073e+03,9.446745872497558594e+00,-6.119350194931030273e-01,-1.109132170677185059e+00,3.000000000000000000e+01
6.269127094745841532e+03,-5.081210998611719333e+03,-3.434534432383758940e+03,-2.300562196192354349e+03,-5.251736114194527545e+03,-5.228579609603939389e+03,1.471775952864731516e+04,-3.606298441616656419e+03,9.446745872497558594e+00,-6.119350194931030273e-01,-1.109132170677185059e+00,3.100000000000000000e+01
7.233918973730445941e+03,-5.168659092399061592e+03,-3.401473099068090960e+03,-2.254344268444569025e+03,-5.292374336854364628e+03,-5.268402266825964034e+03,1.560487779806495200e+04,-3.611499626081123552e+03,9.446745872497558594e+00,-6.119350194931030273e-01,-1.109132170677185059e+00,3.200000000000000000e+01
6.748260591593400022e+03,-5.225169771352308089e+03,-3.322310698470537318e+03,-2.067069714795271921e+03,-5.162491951711836919e+03,-5.262879330584603849e+03,1.356985046031462116e+04,-3.614749907797839569e+03,9.446745872497558594e+00,-6.119350194931030273e-01,-1.109132170677185059e+00,3.300000000000000000e+01
6.397655592859420722e+03,-5.210524818139470881e+03,-3.298966395927600388e+03,-1.981574220122189672e+03,-5.095459794452420283e+03,-5.250249451603548550e+03,1.185121677407955212e+04,-3.610120779215071707e+03,9.446745872497558594e+00,-6.119350194931030273e-01,-1.109132170677185059e+00,3.400000000000000000e+01
6.919854955725720174e+03,-5.090587818295020043e+03,-3.286075317698512663e+03,-2.030738913408973531e+03,-5.128846928414455761e+03,-5.189363246519671520e+03,1.195122392458378999e+04,-3.531331633029860313e+03,9.446745872497558594e+00,-6.119350194931030273e-01,-1.109132170677185059e+00,3.500000000000000000e+01
7.009339150682284526e+03,-4.862072927338076624e+03,-3.134958462443029475e+03,-1.974150622585768815e+03,-5.026686458995895919e+03,-4.994717757082165917e+03,1.119248095220248069e+04,-3.325443871052452778e+03,9.446745872497558594e+00,-6.119350194931030273e-01,-1.109132170677185059e+00,3.600000000000000000e+01
6.517413618042827693e+03,-4.747707902340642249e+03,-2.948901923928850010e+03,-1.779853493487848482e+03,-4.833328214626189947e+03,-4.841987161950017253e+03,9.220564443119552379e+03,-3.176695673614366569e+03,9.446745872497558594e+00,-6.119350194931030273e-01,-1.109132170677185059e+00,3.700000000000000000e+01
6.572201831329412016e+03,-4.874967099418639009e+03,-2.928771118268079590e+03,-1.656321528027946442e+03,-4.795370104170146078e+03,-4.910124398503481643e+03,8.352526507626815146e+03,-3.240777937135188949e+03,9.446745872497558594e+00,-6.119350194931030273e-01,-1.109132170677185059e+00,3.800000000000000000e+01
7.048996183663119155e+03,-4.969499908640478679e+03,-2.991508641539129712e+03,-1.660108346259131395e+03,-4.863401232737275677e+03,-5.004028530346536172e+03,8.301162440210529894e+03,-3.325672515582134110e+03,9.446745872497558594e+00,-6.119350194931030273e-01,-1.109132170677185059e+00,3.900000000000000000e+01
6.993337208597315112e+03,-4.771445043278836238e+03,-2.914943226921002861e+03,-1.646822967784480625e+03,-4.803782310089138264e+03,-4.860843660619157163e+03,7.060226365806699505e+03,-3.186241383504358055e+03,9.446745872497558594e+00,-6.119350194931030273e-01,-1.109132170677185059e+00,4.000000000000000000e+01
6.591379216358385747e+03,-4.480734098852089119e+03,-2.714348631398511316e+03,-1.539770914931756352e+03,-4.625571846256621939e+03,-4.599316753401142705e+03,5.248691210706286256e+03,-2.931795226723676024e+03,9.446745872497558594e+00,-6.119350194931030273e-01,-1.109132170677185059e+00,4.100000000000000000e+01
6.589628450088664067e+03,-4.433130881796718313e+03,-2.584684372248604177e+03,-1.400353404054056682e+03,-4.513199394244007635e+03,-4.510817438693359691e+03,4.529393752140947981e+03,-2.838339905033869854e+03,9.446745872497558594e+00,-6.119350194931030273e-01,-1.109132170677185059e+00,4.200000000000000000e+01
6.861263537375831220e+03,-4.582620301263297733e+03,-2.589416326021807436e+03,-1.301715364803401144e+03,-4.508770395081352035e+03,-4.605837487108600726e+03,4.105619881933050237e+03,-2.925800712386219402e+03,9.446745872497558594e+00,-6.119350194931030273e-01,-1.109132170677185059e+00,4.300000000000000000e+01
6.910048269286486175e+03,-4.611200058867008011e+03,-2.609329993678412393e+03,-1.262166431619950117e+03,-4.508035718571983125e+03,-4.645010332959767766e+03,2.737003668758129606e+03,-2.967286000602850436e+03,9.446745872497558594e+00,-6.119350194931030273e-01,-1.109132170677185059e+00,4.400000000000000000e+01
6.774123732618938448e+03,-4.397041268076384767e+03,-2.528873311891624326e+03,-1.241180181017625046e+03,-4.436812262440274935e+03,-4.496950955121039442e+03,1.398364902062923647e+03,-2.824417680053110416e+03,9.446745872497558594e+00,-6.119350194931030273e-01,-1.109132170677185059e+00,4.500000000000000000e+01
6.682067622717852828e+03,-4.145550793849968613e+03,-2.364410934086261932e+03,-1.167644883855176658e+03,-4.308036477325682426e+03,-4.282890749926802528e+03,8.143565931485859437e+02,-2.608208507812465996e+03,9.446745872497558594e+00,-6.119350194931030273e-01,-1.109132170677185059e+00,4.600000000000000000e+01
6.647079158610665218e+03,-4.095836515866341415e+03,-2.232867000708379692e+03,-1.032029651338568783e+03,-4.192782461545224578e+03,-4.199829757125387914e+03,-2.855440019527504774e+02,-2.518285173174828287e+03,9.446745872497558594e+00,-6.119350194931030273e-01,-1.109132170677185059e+00,4.700000000000000000e+01
6.685196852389623018e+03,-4.218767719230635521e+03,-2.213366255185250793e+03,-9.206089621286994316e+02,-4.156457096260617618e+03,-4.274682945010642470e+03,-2.027648127926047891e+03,-2.589755561024769577e+03,9.446745872497558594e+00,-6.119350194931030273e-01,-1.109132170677185059e+00,4.800000000000000000e+01
6.807050050715932230e+03,-4.258115171007302706e+03,-2.239892548557230384e+03,-8.953728090567610707e+02,-4.168644974493934569e+03,-4.325352197920846265e+03,-2.633154408441090709e+03,-2.644423749901903648e+03,9.446745872497558594e+00,-6.119350194931030273e-01,-1.109132170677185059e+00,4.900000000000000000e+01
6.819274979887202790e+03,-4.066230293595418971e+03,-2.178782446604513098e+03,-8.956568900933079931e+02,-4.123016428070980510e+03,-4.193537324345917114e+03,-2.524622833259445088e+03,-2.521730857059817936e+03,9.446745872497558594e+00,-6.119350194931030273e-01,-1.109132170677185059e+00,5.000000000000000000e+01
6.616283709404665387e+03,-3.810504414163547153e+03,-2.015420268959996065e+03,-8.260247973028281194e+02,-3.988208651289490263e+03,-3.966344866760116020e+03,-3.975621138268124014e+03,-2.302755528415813387e+03,9.446745872497558594e+00,-6.119350194931030273e-01,-1.109132170677185059e+00,5.100000000000000000e+01
6.474728573664280702e+03,-3.751709971637742456e+03,-1.881737937605525076e+03,-6.945148179805482869e+02,-3.862308651501411987e+03,-3.864973001859959822e+03,-5.793887545737990877e+03,-2.205533601914105930e+03,9.446745872497558594e+00,-6.119350194931030273e-01,-1.109132170677185059e+00,5.200000000000000000e+01
6.631975403082722551e+03,-3.881192096913708156e+03,-1.870669028372910816e+03,-5.968221796004636417e+02,-3.831171622979899439e+03,-3.936051686224216155e+03,-5.296702656013726482e+03,-2.280310605614192809e+03,9.446745872497558594e+00,-6.119350194931030273e-01,-1.109132170677185059e+00,5.300000000000000000e+01
6.807975566328814239e+03,-3.929450936138146972e+03,-1.902903822112506077e+03,-5.804667770126973210e+02,-3.842999590256501506e+03,-3.984947684962301082e+03,-5.191336917416952019e+03,-2.336551766737348771e+03,9.446745872497558594e+00,-6.119350194931030273e-01,-1.109132170677185059e+00,5.400000000000000000e+01
6.642494556006210587e+03,-3.741539349499501441e+03,-1.838577999732784974e+03,-5.825973089740575688e+02,-3.785339339364722491e+03,-3.849674348655096310e+03,-9.057613177128438110e+03,-2.209561752290306231e+03,9.446745872497558594e+00,-6.119350194931030273e-01,-1.109132170677185059e+00,5.500000000000000000e+01
6.412030042989691538e+03,-3.492712200612099878e+03,-1.674346886937991258e+03,-5.187090614168937464e+02,-3.646492070457749378e+03,-3.627175833632718877e+03,-1.092105255170380406e+04,-1.990456288470162235e+03,9.446745872497558594e+00,-6.119350194931030273e-01,-1.109132170677185059e+00,5.600000000000000000e+01
6.667343038323904693e+03,-3.438841406872154494e+03,-1.544469519166373175e+03,-3.930633236803430464e+02,-3.524446899606547959e+03,-3.532053354142698481e+03,-1.724025929827154869e+03,-1.894613010761453552e+03,9.446745872497558594e+00,-6.119350194931030273e-01,-1.109132170677185059e+00,5.700000000000000000e+01
7.353871644670812202e+03,-3.566178946483065829e+03,-1.537452368470832880e+03,-2.953014659782161289e+02,-3.494518050734508506e+03,-3.603619386973283326e+03,1.435558100085432852e+04,-1.966994880699759960e+03,9.523238182067871094e+00,-6.119350194931030273e-01,-1.109132170677185059e+00,5.800000000000000000e+01
7.810018770156319988e+03,-3.611502618098592848e+03,-1.573162444319920269e+03,-2.776824839561161298e+02,-3.505897702471888806e+03,-3.652303678692302583e+03,2.333214034681303019e+04,-2.021544086187106132e+03,9.523238182067871094e+00,-6.119350194931030273e-01,-1.109132170677185059e+00,5.900000000000000000e+01
7.704170059103732456e+03,-3.425800311842386691e+03,-1.513877592369541617e+03,-2.829992830628377760e+02,-3.452434165424120238e+03,-3.520294897287080403e+03,2.130206688009471327e+04,-1.898490318355070940e+03,9.523238182067871094e+00,-6.119350194931030273e-01,-1.109132170677185059e+00,6.000000000000000000e+01
7.411443998824015580e+03,-3.179560031004757093e+03,-1.355175281023007528e+03,-2.235101331644291349e+02,-3.319424837872644275e+03,-3.299082137841774966e+03,1.750659009477599102e+04,-1.684754868415760939e+03,9.523238182067871094e+00,-6.119350194931030273e-01,-1.109132170677185059e+00,6.100000000000000000e+01
7.358709237129949543e+03,-3.126504375346143206e+03,-1.231701976001953199e+03,-1.028740403532560777e+02,-3.203637782210661953e+03,-3.204370447029195475e+03,1.778145786238585788e+04,-1.594023771441303325e+03,9.523238182067871094e+00,-6.119350194931030273e-01,-1.109132170677185059e+00,6.200000000000000000e+01
7.498519158812511705e+03,-3.252414532013391181e+03,-1.230499010014986879e+03,-1.141049878531794093e+01,-3.178696202887655545e+03,-3.278206728175183798e+03,1.830678449488568731e+04,-1.671258405420234794e+03,9.523238182067871094e+00,-6.119350194931030273e-01,-1.109132170677185059e+00,6.300000000000000000e+01
7.565518240273662741e+03,-3.295333532087129697e+03,-1.270995986011168043e+03,-3.910603669214651745e-01,-3.192717970971948034e+03,-3.330213939033087627e+03,1.621426792651147116e+04,-1.730278989974886827e+03,9.523238182067871094e+00,-6.119350194931030273e-01,-1.109132170677185059e+00,6.400000000000000000e+01
7.469583328821120631e+03,-3.108318857947731885e+03,-1.216675574950625105e+03,-1.073573978513650218e+01,-3.140597410451056021e+03,-3.201988108388934506e+03,1.442162981896111160e+04,-1.611787320424448808e+03,9.523238182067871094e+00,-6.119350194931030273e-01,-1.109132170677185059e+00,6.500000000000000000e+01
7.309819036783344927e+03,-2.861971591021655513e+03,-1.063143516240892723e+03,4.444932523185025275e+01,-3.009891938578483860e+03,-2.987637524656325695e+03,1.458935064870791211e+04,-1.404269409530593293e+03,9.523238182067871094e+00,-6.119350194931030273e-01,-1.109132170677185059e+00,6.600000000000000000e+01
7.228016793506641989e+03,-2.808378729789256340e+03,-9.436467844084727403e+02,1.591126984381771763e+02,-2.897452186859090034e+03,-2.901929226731716881e+03,1.429765371784065610e+04,-1.320818311139787738e+03,9.523238182067871094e+00,-6.119350194931030273e-01,-1.109132170677185059e+00,6.700000000000000000e+01
7.288142441330393012e+03,-2.934830254719229288e+03,-9.446480297762664122e+02,2.432452943136149770e+02,-2.874937740552830292e+03,-2.980704365675109784e+03,1.243154835830533739e+04,-1.403180322063392396e+03,9.523238182067871094e+00,-6.119350194931030273e-01,-1.109132170677185059e+00,6.800000000000000000e+01
7.382974049216074491e+03,-2.983540938316987649e+03,-9.858296643201974803e+02,2.477574996452340201e+02,-2.890343972141587983e+03,-3.032466129948241360e+03,1.111835035317660368e+04,-1.464277323328737566e+03,9.523238182067871094e+00,-6.119350194931030273e-01,-1.109132170677185059e+00,6.900000000000000000e+01
7.329742132827512251e+03,-2.805534690552043230e+03,-9.310999010982409345e+02,2.318345011113547116e+02,-2.840399811904254420e+03,-2.904757659358926503e+03,1.150421226503974140e+04,-1.347431759709937523e+03,9.523238182067871094e+00,-6.119350194931030273e-01,-1.109132170677185059e+00,7.000000000000000000e+01
7.135781331409039922e+03,-2.561971844108114055e+03,-7.779887241364458532e+02,2.815382741435214484e+02,-2.712816038583502632e+03,-2.692309010100128489e+03,1.185322434147901004e+04,-1.142313060929996482e+03,9.523238182067871094e+00,-6.119350194931030273e-01,-1.109132170677185059e+00,7.100000000000000000e+01
7.022718470164822975e+03,-2.501091967544949057e+03,-6.622626811048207855e+02,3.926441078124571504e+02,-2.603001563618630826e+03,-2.603452406902882558e+03,1.076722165206857971e+04,-1.060357668181067311e+03,9.523238182067871094e+00,-6.119350194931030273e-01,-1.109132170677185059e+00,7.200000000000000000e+01
7.103642965626929254e+03,-2.619093899118074205e+03,-6.697024161697163436e+02,4.773440280017475743e+02,-2.582408251686743370e+03,-2.674618331156900240e+03,9.500748701830743812e+03,-1.142937498122822035e+03,9.523238182067871094e+00,-6.119350194931030273e-01,-1.109132170677185059e+00,7.300000000000000000e+01
7.207358563515656897e+03,-2.668230791430448789e+03,-7.168582026144240444e+02,4.842411398978674697e+02,-2.599538196645186872e+03,-2.723671411984373208e+03,9.508819620527116058e+03,-1.204914582634347425e+03,9.523238182067871094e+00,-6.119350194931030273e-01,-1.109132170677185059e+00,7.400000000000000000e+01
7.132128986240385530e+03,-2.498596297563989992e+03,-6.671806490210797165e+02,4.674882794155082593e+02,-2.550670193818718872e+03,-2.600931250319054470e+03,9.545433608484208889e+03,-1.090489828487098293e+03,9.523238182067871094e+00,-6.119350194931030273e-01,-1.109132170677185059e+00,7.500000000000000000e+01
6.933801324490106708e+03,-2.264232136113113484e+03,-5.199205846990271311e+02,5.114759127121856181e+02,-2.423336972294606767e+03,-2.394241283697615927e+03,8.019288512219987751e+03,-8.880777472600093461e+02,9.523238182067871094e+00,-6.119350194931030273e-01,-1.109132170677185059e+00,7.600000000000000000e+01
6.833632260528281222e+03,-2.209938665974552350e+03,-4.093388152210250155e+02,6.148178548334685729e+02,-2.313675745497922435e+03,-2.309142708461274651e+03,7.220452123077682700e+03,-8.080070412018026218e+02,9.523238182067871094e+00,-6.119350194931030273e-01,-1.109132170677185059e+00,7.700000000000000000e+01
6.909133985786529593e+03,-2.331691656618460001e+03,-4.179622153706786776e+02,6.931366059543029223e+02,-2.293369710900134578e+03,-2.386108349907865431e+03,1.086459304153706034e+04,-8.923561148640110332e+02,9.523238182067871094e+00,-6.119350194931030273e-01,-1.109132170677185059e+00,7.800000000000000000e+01
6.997768251846993735e+03,-2.380832902929483680e+03,-4.642574609695325307e+02,6.965497297103383971e+02,-2.311364871663435679e+03,-2.442440368504635899e+03,1.754802527133632248e+04,-9.580687762346035470e+02,9.484992027282714844e+00,-6.119350194931030273e-01,-1.109132170677185059e+00,7.900000000000000000e+01
6.921144997762345156e+03,-2.208171662029846630e+03,-4.174437699592003810e+02,6.788590913433681635e+02,-2.265948415504634795e+03,-2.322729648240200277e+03,2.164363867686959566e+04,-8.505076087816619292e+02,9.484992027282714844e+00,-6.119350194931030273e-01,-1.109132170677185059e+00,8.000000000000000000e+01
6.724805036793493855e+03,-1.971774482503372838e+03,-2.777309814075315444e+02,7.224381598405625482e+02,-2.145381715800446273e+03,-2.114714296962667049e+03,2.113651314264678513e+04,-6.560985613676132289e+02,9.484992027282714844e+00,-6.119350194931030273e-01,-1.109132170677185059e+00,8.100000000000000000e+01
6.617415442476489261e+03,-1.919106857590092204e+03,-1.745595868069176504e+02,8.232074050182436622e+02,-2.042769375107210180e+03,-2.029289161662059996e+03,1.939345690427587033e+04,-5.818440221333794398e+02,9.484992027282714844e+00,-6.119350194931030273e-01,-1.109132170677185059e+00,8.200000000000000000e+01
6.686110173752210358e+03,-2.044599407880207309e+03,-1.877137299379774049e+02,8.956657338248337510e+02,-2.026643491409751732e+03,-2.108451058050341089e+03,1.891543494889847352e+04,-6.695597647771978700e+02,9.484992027282714844e+00,-6.119350194931030273e-01,-1.109132170677185059e+00,8.300000000000000000e+01
6.774368577125049342e+03,-2.097733990863729559e+03,-2.377578065746897664e+02,8.910558371906649882e+02,-2.046311274630536900e+03,-2.167589752429995315e+03,1.868627261697891663e+04,-7.386490012907836444e+02,9.484992027282714844e+00,-6.119350194931030273e-01,-1.109132170677185059e+00,8.400000000000000000e+01
6.696998864307533040e+03,-1.929957751475783880e+03,-1.953038274537443613e+02,8.647986250944768472e+02,-2.001319900291293379e+03,-2.051766916758007937e+03,1.790999928009936411e+04,-6.347567247757517634e+02,9.484992027282714844e+00,-6.119350194931030273e-01,-1.109132170677185059e+00,8.500000000000000000e+01
6.498015718703765742e+03,-1.699714957604961910e+03,-5.872018265041697305e+01,9.001583721696979410e+02,-1.879596615057126655e+03,-1.848640470422440558e+03,1.747412725131183834e+04,-4.417830642771828025e+02,9.484992027282714844e+00,-6.119350194931030273e-01,-1.109132170677185059e+00,8.600000000000000000e+01
6.390794122748089649e+03,-1.652598446967772816e+03,4.334120840083096482e+01,9.936577548469504109e+02,-1.775055195306898440e+03,-1.764979012929436976e+03,1.744379120078453707e+04,-3.661703122609651473e+02,9.484992027282714844e+00,-6.119350194931030273e-01,-1.109132170677185059e+00,8.700000000000000000e+01
6.459915066551868222e+03,-1.781704969393657848e+03,2.845519106106348772e+01,1.060190555968393710e+03,-1.759375743918220905e+03,-1.841447745696951188e+03,1.674767305208369362e+04,-4.527689031413397061e+02,9.484992027282714844e+00,-6.119350194931030273e-01,-1.109132170677185059e+00,8.800000000000000000e+01
6.546004331824744440e+03,-1.838231415203216784e+03,-2.639813204052552464e+01,1.050664788837639207e+03,-1.783166703036127728e+03,-1.899055629543478517e+03,1.552138696181064552e+04,-5.236115926436164045e+02,9.484992027282714844e+00,-6.119350194931030273e-01,-1.109132170677185059e+00,8.900000000000000000e+01
6.466930872053537314e+03,-1.676074097481437093e+03,8.929561452416237444e+00,1.020065985424198516e+03,-1.743529432821271257e+03,-1.786604660854308349e+03,1.495432265795714738e+04,-4.237437340436158593e+02,9.484992027282714844e+00,-6.119350194931030273e-01,-1.109132170677185059e+00,9.000000000000000000e+01
6.268484722457930729e+03,-1.452864979307787507e+03,1.384354756002840077e+02,1.052198134892275448e+03,-1.626181343762215874e+03,-1.587553142159277741e+03,1.513774112752781184e+04,-2.350213601356090294e+02,9.484992027282714844e+00,-6.119350194931030273e-01,-1.109132170677185059e+00,9.100000000000000000e+01
6.159384404653468664e+03,-1.410611207727435612e+03,2.351882295262635125e+02,1.144132436174888426e+03,-1.525375888070195288e+03,-1.504637035486739478e+03,1.491823471527364927e+04,-1.630490462050970564e+02,9.484992027282714844e+00,-6.119350194931030273e-01,-1.109132170677185059e+00,9.200000000000000000e+01
6.223101476259344963e+03,-1.540838800882957912e+03,2.177204781277805523e+02,1.209346429899659597e+03,-1.512987495331063656e+03,-1.581353160785404270e+03,1.376299887594417123e+04,-2.532123691759602480e+02,9.484992027282714844e+00,-6.119350194931030273e-01,-1.109132170677185059e+00,9.300000000000000000e+01
6.304528471349784013e+03,-1.596981868056170242e+03,1.627867149363200951e+02,1.196301791919497191e+03,-1.538872124104397699e+03,-1.642201258601711743e+03,1.260970179630966231e+04,-3.281903901456180392e+02,9.484992027282714844e+00,-6.119350194931030273e-01,-1.109132170677185059e+00,9.400000000000000000e+01
6.225001094309929613e+03,-1.434648073621340700e+03,1.982306326817183617e+02,1.159879541980450085e+03,-1.501456287805016018e+03,-1.534590101060684901e+03,1.244670498833599959e+04,-2.332343671603152870e+02,9.484992027282714844e+00,-6.119350194931030273e-01,-1.109132170677185059e+00,9.500000000000000000e+01
6.028065788362138846e+03,-1.210036557053867000e+03,3.254817253910500767e+02,1.186503793738997956e+03,-1.389264936402104013e+03,-1.340400800117328799e+03,1.264885605046614182e+04,-4.999185202830039998e+01,9.484992027282714844e+00,-6.119350194931030273e-01,-1.109132170677185059e+00,9.600000000000000000e+01
5.919052836134665995e+03,-1.165147549495115982e+03,4.178883770115608058e+02,1.275087020944119104e+03,-1.295872833042440107e+03,-1.263573984833344639e+03,1.192094388762758717e+04,1.704425973933757632e+01,9.484992027282714844e+00,-6.119350194931030273e-01,-1.109132170677185059e+00,9.700000000000000000e+01
5.982159455437973520e+03,-1.295752866327838092e+03,3.962358938517190836e+02,1.338759500174021923e+03,-1.289122090698032480e+03,-1.346698513807721611e+03,1.065142170049890046e+04,-7.589991008142851570e+01,9.484992027282714844e+00,-6.119350194931030273e-01,-1.109132170677185059e+00,9.800000000000000000e+01
6.063867995527445601e+03,-1.357119131009814737e+03,3.378099365168500299e+02,1.325834045624860664e+03,-1.317869228151567313e+03,-1.410676048232744506e+03,1.024218508996349919e+04,-1.519748940653717000e+02,9.484992027282714844e+00,-6.119350194931030273e-01,-1.109132170677185059e+00,9.900000000000000000e+01
5.983405925489434594e+03,-1.199347706432452469e+03,3.694262145176817285e+02,1.291522001066027769e+03,-1.283642981384002724e+03,-1.303156811695957458e+03,1.020757098970770494e+04,-5.948885053484809760e+01,9.484992027282714844e+00,-6.119350194931030273e-01,-1.109132170677185059e+00,1.000000000000000000e+02
5.781693765527406867e+03,-9.733886603012069827e+02,4.934288232071485254e+02,1.320406401672650645e+03,-1.175502751544302555e+03,-1.109938500246855256e+03,9.091200588689991491e+03,1.189008305388429108e+02,9.484992027282714844e+00,-6.119350194931030273e-01,-1.109132170677185059e+00,1.010000000000000000e+02
5.665706213862949880e+03,-9.240953355945669045e+02,5.855682532799828550e+02,1.408700759362975077e+03,-1.083410643972793878e+03,-1.035098953423795137e+03,8.284638132147058059e+03,1.821873891763652864e+02,9.484992027282714844e+00,-6.119350194931030273e-01,-1.109132170677185059e+00,1.020000000000000000e+02
5.723336128055116205e+03,-1.052767307936939687e+03,5.662010105837534866e+02,1.470437227771461949e+03,-1.074582656661857982e+03,-1.118273011321082777e+03,1.077499520592044246e+04,8.890528049652311893e+01,9.484992027282714844e+00,-6.119350194931030273e-01,-1.109132170677185059e+00,1.030000000000000000e+02
5.802407953325807284e+03,-1.115188151610860587e+03,5.089383223541526604e+02,1.456707064383742363e+03,-1.102493146695301675e+03,-1.182109403993529668e+03,1.572690323268954853e+04,1.273840995472801296e+01,9.561484336853027344e+00,-4.971971809864044189e-01,-1.070886254310607910e+00,1.040000000000000000e+02
5.721703648204309502e+03,-9.600485178130102213e+02,5.382110642599764105e+02,1.421317054378315333e+03,-1.071176517715773116e+03,-1.078956616299624784e+03,1.878148326605841430e+04,1.024314229706260448e+02,9.561484336853027344e+00,-4.971971809864044189e-01,-1.070886254310607910e+00,1.050000000000000000e+02
5.521743484024148529e+03,-7.391992218755490285e+02,6.574466902677986582e+02,1.444951513016977515e+03,-9.665298624831748384e+02,-8.934143001079019086e+02,1.829771242903046732e+04,2.779203258585957883e+02,9.561484336853027344e+00,-4.971971809864044189e-01,-1.070886254310607910e+00,1.060000000000000000e+02
5.407875978346693955e+03,-6.968672872531053599e+02,7.443103787203472166e+02,1.524809471623015270e+03,-8.757583467265612853e+02,-8.242072877969321780e+02,1.684202793482924972e+04,3.409901385960406515e+02,9.561484336853027344e+00,-4.971971809864044189e-01,-1.070886254310607910e+00,1.070000000000000000e+02
5.465403863375082437e+03,-8.307702769688671651e+02,7.197637801410373868e+02,1.579716276142914467e+03,-8.676720489354165693e+02,-9.104737120092208897e+02,1.628971085634778319e+04,2.474611619356278425e+02,9.561484336853027344e+00,-4.971971809864044189e-01,-1.070886254310607910e+00,1.080000000000000000e+02
5.542340081465301409e+03,-8.966735396290196149e+02,6.576924425136794525e+02,1.561598618624813753e+03,-8.975327289246761211e+02,-9.777269551965332539e+02,1.583027076912345547e+04,1.675039527148069283e+02,9.561484336853027344e+00,-4.971971809864044189e-01,-1.070886254310607910e+00,1.090000000000000000e+02
5.460630988184863781e+03,-7.480872595979260495e+02,6.833528181564133774e+02,1.521333796325227922e+03,-8.681606739170974834e+02,-8.767880778360663498e+02,1.503951666139154986e+04,2.514409793194727172e+02,9.561484336853027344e+00,-4.971971809864044189e-01,-1.070886254310607910e+00,1.100000000000000000e+02
5.261903724129714647e+03,-5.382497128002378304e+02,8.005154795167982229e+02,1.539341360121949947e+03,-7.639160219567402237e+02,-6.892542183641094198e+02,1.473220830044489594e+04,4.228567113317499206e+02,9.561484336853027344e+00,-4.971971809864044189e-01,-1.070886254310607910e+00,1.110000000000000000e+02
5.149162399425980766e+03,-5.058516189008039419e+02,8.859218696528369037e+02,1.614592762911884165e+03,-6.724622498931157679e+02,-6.170347350780864417e+02,1.465850018976348474e+04,4.843375748811836274e+02,9.561484336853027344e+00,-4.971971809864044189e-01,-1.070886254310607910e+00,1.120000000000000000e+02
5.206690585427302722e+03,-6.431888227731240022e+02,8.590772071759674873e+02,1.665074575695640306e+03,-6.639601898705509484e+02,-7.047040481276771970e+02,1.376203044854398831e+04,3.904184389221281890e+02,9.561484336853027344e+00,-4.971971809864044189e-01,-1.070886254310607910e+00,1.130000000000000000e+02
5.284552096964505836e+03,-7.067260696245723466e+02,7.929303354710527856e+02,1.641788939620019846e+03,-6.950085989571553000e+02,-7.767538295447188830e+02,1.250533497882514530e+04,3.101339742532595665e+02,9.561484336853027344e+00,-4.971971809864044189e-01,-1.070886254310607910e+00,1.140000000000000000e+02
5.205452198039216455e+03,-5.545094168331620494e+02,8.128306082128156049e+02,1.598452917166784573e+03,-6.697522005753748999e+02,-6.791342564478127315e+02,1.213624678976664472e+04,3.929122553344259359e+02,9.561484336853027344e+00,-4.971971809864044189e-01,-1.070886254310607910e+00,1.150000000000000000e+02
5.008845020954646316e+03,-3.428436727091716421e+02,9.239422954868759916e+02,1.617505517939720448e+03,-5.727229180284475660e+02,-4.927580398713735121e+02,1.229047654795594644e+04,5.619846151286901659e+02,9.561484336853027344e+00,-4.971971809864044189e-01,-1.070886254310607910e+00,1.160000000000000000e+02
4.896772281121822743e+03,-3.101060596259112572e+02,1.005179648025711685e+03,1.694853488676732013e+03,-4.898217806545781059e+02,-4.223981007489917374e+02,1.174449980303750635e+04,6.202487353732208248e+02,9.561484336853027344e+00,-4.971971809864044189e-01,-1.070886254310607910e+00,1.170000000000000000e+02
4.955374073486817906e+03,-4.477019314813326218e+02,9.770529981947693159e+02,1.745550594390250808e+03,-4.890641914232855925e+02,-5.136368135140555751e+02,1.063062376100859910e+04,5.221477594750713251e+02,9.561484336853027344e+00,-4.971971809864044189e-01,-1.070886254310607910e+00,1.180000000000000000e+02
5.035754682673703428e+03,-5.139396115921329056e+02,9.110416156626497468e+02,1.722071447747374805e+03,-5.260779714780164795e+02,-5.902811749103670991e+02,9.865298036435659014e+03,4.369636209950826924e+02,9.561484336853027344e+00,-4.971971809864044189e-01,-1.070886254310607910e+00,1.190000000000000000e+02
4.959400485912403383e+03,-3.690050302739402923e+02,9.303150342944436488e+02,1.679043233969388893e+03,-5.045963835456095694e+02,-4.983822081868308942e+02,9.495144356626136869e+03,5.165331038393251220e+02,9.561484336853027344e+00,-4.971971809864044189e-01,-1.070886254310607910e+00,1.200000000000000000e+02
4.764923144771247280e+03,-1.663447266030079845e+02,1.039597597584797768e+03,1.696149856154813278e+03,-4.086876820133493311e+02,-3.184267307280124442e+02,9.156131808008018197e+03,6.862752732122407906e+02,9.561484336853027344e+00,-4.971971809864044189e-01,-1.070886254310607910e+00,1.210000000000000000e+02
4.654375424034735261e+03,-1.387116608683375034e+02,1.118212403899407946e+03,1.768428630859963960e+03,-3.250156204622232963e+02,-2.530533009819107519e+02,8.825646464566416398e+03,7.469492922013314455e+02,9.561484336853027344e+00,-4.971971809864044189e-01,-1.070886254310607910e+00,1.220000000000000000e+02
4.713046678858757332e+03,-2.770291121236323306e+02,1.085846354373554277e+03,1.814580536075605778e+03,-3.240293204791430526e+02,-3.466587292932563287e+02,8.181601361851480760e+03,6.484883667854028317e+02,9.561484336853027344e+00,-4.971971809864044189e-01,-1.070886254310607910e+00,1.230000000000000000e+02
4.791742557651476091e+03,-3.438760120218637439e+02,1.013501394596540194e+03,1.789336426120677061e+03,-3.628422230495507392e+02,-4.247982051254512044e+02,6.952621066635325406e+03,5.587731581103225835e+02,9.561484336853027344e+00,-4.971971809864044189e-01,-1.070886254310607910e+00,1.240000000000000000e+02
4.714118800433486285e+03,-2.001984357988467309e+02,1.026731987041132925e+03,1.744977277657333616e+03,-3.437303429664093528e+02,-3.360940065673446497e+02,6.158950275587460055e+03,6.317259347726194392e+02,9.561484336853027344e+00,-4.971971809864044189e-01,-1.070886254310607910e+00,1.250000000000000000e+02
4.520365865607050182e+03,3.927821618965936068e+00,1.133061932976715070e+03,1.758693757873221330e+03,-2.488750662333011405e+02,-1.614377501692629266e+02,6.612936665302855545e+03,7.947989674327391185e+02,9.561484336853027344e+00,-4.971971809864044189e-01,-1.070886254310607910e+00,1.260000000000000000e+02
4.410642854493587038e+03,3.509801342465743801e+01,1.211077538934047880e+03,1.825843100765194322e+03,-1.657439349092569500e+02,-1.014286550834701757e+02,6.618641183128242119e+03,8.499718645845459832e+02,9.561484336853027344e+00,-4.971971809864044189e-01,-1.070886254310607910e+00,1.270000000000000000e+02
4.468553310652391701e+03,-1.035357243456967353e+02,1.178027021658561353e+03,1.866004132227228183e+03,-1.665326037187098791e+02,-1.983245614923989706e+02,4.584301970043878100e+03,7.485267456902947742e+02,9.561484336853027344e+00,-4.971971809864044189e-01,-1.070886254310607910e+00,1.280000000000000000e+02
4.546903460554124649e+03,-1.772672968779636449e+02,1.104752808418809764e+03,1.834130282968873871e+03,-2.079701363292824681e+02,-2.777310800259451753e+02,3.161062504592500773e+03,6.586418812507226903e+02,9.561484336853027344e+00,-4.971971809864044189e-01,-1.070886254310607910e+00,1.290000000000000000e+02
4.470992147452052450e+03,-4.234532908427195252e+01,1.117426291375708388e+03,1.783423413555110528e+03,-1.914579811451947080e+02,-1.897569040287512507e+02,6.209078249329730170e+03,7.324039274876313357e+02,9.561484336853027344e+00,-4.971971809864044189e-01,-1.070886254310607910e+00,1.300000000000000000e+02
4.278289333413351414e+03,1.575564422642473801e+02,1.221998390623009982e+03,1.792717039620851210e+03,-1.002817453212473993e+02,-1.524975004616180740e+01,1.208893208227243304e+04,8.949612462778586632e+02,9.484992027282714844e+00,-7.266727685928344727e-01,-1.032640218734741211e+00,1.310000000000000000e+02
4.166000491428965688e+03,1.906188036497155736e+02,1.295897473284395346e+03,1.858439479704537007e+03,-2.233390202733266960e+01,4.672716417516426191e+01,1.513066901560345286e+04,9.475328573022061391e+02,9.484992027282714844e+00,-7.266727685928344727e-01,-1.032640218734741211e+00,1.320000000000000000e+02
4.219315312292994349e+03,5.660385992826036272e+01,1.258264815703681961e+03,1.899782148219230294e+03,-2.716619081553358228e+01,-4.686662087882314154e+01,1.371627660395627026e+04,8.421858944743871689e+02,9.484992027282714844e+00,-7.266727685928344727e-01,-1.032640218734741211e+00,1.330000000000000000e+02
4.294151079330506946e+03,-1.383370394364101230e+01,1.181302959882992582e+03,1.869156041715947140e+03,-6.993697645639554139e+01,-1.255244534557452880e+02,1.168193351715183235e+04,7.481883288118506243e+02,9.484992027282714844e+00,-7.266727685928344727e-01,-1.032640218734741211e+00,1.340000000000000000e+02
4.216053107361617549e+03,1.218122128677766796e+02,1.189748668203889792e+03,1.816438300156276455e+03,-5.478920642844082067e+01,-4.136915503747513867e+01,1.168753015013518234e+04,8.181016886340066776e+02,9.484992027282714844e+00,-7.266727685928344727e-01,-1.032640218734741211e+00,1.350000000000000000e+02
4.021603190143491702e+03,3.204497104691226923e+02,1.289911861242786472e+03,1.820305923212303242e+03,3.287050426631822120e+01,1.277641937488481290e+02,1.215806110173438719e+04,9.774942377949573711e+02,9.484992027282714844e+00,-7.266727685928344727e-01,-1.032640218734741211e+00,1.360000000000000000e+02
3.908795809727550477e+03,3.497376894562787584e+02,1.363011590556498049e+03,1.880830086329771802e+03,1.078884240195131952e+02,1.870382864532753047e+02,1.137404575082569136e+04,1.029108143081638445e+03,9.484992027282714844e+00,-7.266727685928344727e-01,-1.032640218734741211e+00,1.370000000000000000e+02
3.963670733053805634e+03,2.088006877910254389e+02,1.328739504713000315e+03,1.919646712094603572e+03,1.032544082704073389e+02,9.396813769980599318e+01,1.011696331798453321e+04,9.261155052693220568e+02,9.484992027282714844e+00,-7.266727685928344727e-01,-1.032640218734741211e+00,1.380000000000000000e+02
4.041415801393574839e+03,1.307174182308528998e+02,1.253914261379197342e+03,1.887869696908179321e+03,6.131708762361699883e+01,1.658743275626329705e+01,9.458825180235617154e+03,8.353321323693899103e+02,9.484992027282714844e+00,-7.266727685928344727e-01,-1.032640218734741211e+00,1.390000000000000000e+02
3.966909343051592259e+03,2.609286306477004018e+02,1.259651744887390123e+03,1.833927025225701072e+03,7.524301633637492159e+01,1.009842259427250610e+02,9.172150475216811174e+03,9.050954662605499834e+02,9.484992027282714844e+00,-7.266727685928344727e-01,-1.032640218734741211e+00,1.400000000000000000e+02
3.776930057237259462e+03,4.542221546158416459e+02,1.355368439154813132e+03,1.836983388312492025e+03,1.617383791876604846e+02,2.697012803525974505e+02,8.847568722314063052e+03,1.060936715503526102e+03,9.484992027282714844e+00,-7.266727685928344727e-01,-1.032640218734741211e+00,1.410000000000000000e+02
3.668913301859317471e+03,4.738761913831542643e+02,1.426078970589939672e+03,1.897175110905951442e+03,2.378747166030670996e+02,3.288421345107358320e+02,8.422606557603445253e+03,1.109583837596776903e+03,9.484992027282714844e+00,-7.266727685928344727e-01,-1.032640218734741211e+00,1.420000000000000000e+02
3.727643806153664627e+03,3.209221033853348217e+02,1.390670995087047231e+03,1.935622931526824686e+03,2.340075741636119346e+02,2.352575664827722903e+02,7.662999036689481727e+03,1.005220837331409712e+03,9.484992027282714844e+00,-7.266727685928344727e-01,-1.032640218734741211e+00,1.430000000000000000e+02
3.808439832625967938e+03,2.354802292577694516e+02,1.314425482621266383e+03,1.904569701192189314e+03,1.896519497500187299e+02,1.549280821609950181e+02,6.622015312250099669e+03,9.115138207152194809e+02,9.484992027282714844e+00,-7.266727685928344727e-01,-1.032640218734741211e+00,1.440000000000000000e+02
3.737488243653542668e+03,3.650682916833047784e+02,1.319696287785308414e+03,1.853309466357117344e+03,2.000996877468510320e+02,2.336034568132486129e+02,6.042920410002188873e+03,9.764726131579191133e+02,9.484992027282714844e+00,-7.266727685928344727e-01,-1.032640218734741211e+00,1.450000000000000000e+02
3.551491872593189328e+03,5.601973452948661816e+02,1.416260815134348377e+03,1.858343399139554094e+03,2.849016600755394393e+02,3.966008723708109756e+02,6.118503541457517713e+03,1.129899678352786395e+03,9.484992027282714844e+00,-7.266727685928344727e-01,-1.032640218734741211e+00,1.460000000000000000e+02
3.446106246461306000e+03,5.820217362142398088e+02,1.486465580361051252e+03,1.916354538335977850e+03,3.596202799865143334e+02,4.521007460982664270e+02,5.835089373503544266e+03,1.180377874802155930e+03,9.484992027282714844e+00,-7.266727685928344727e-01,-1.032640218734741211e+00,1.470000000000000000e+02
3.505448193827608520e+03,4.322340920029832887e+02,1.447990905440504321e+03,1.948759914498514263e+03,3.523033859997274249e+02,3.550209370405821119e+02,4.665882474001973605e+03,1.078471095010722820e+03,9.484992027282714844e+00,-7.266727685928344727e-01,-1.032640218734741211e+00,1.480000000000000000e+02
3.586542774827088579e+03,3.471924471696424916e+02,1.368438694000523355e+03,1.910427812802012340e+03,3.035786222475192062e+02,2.690475154270554867e+02,3.621275398099527592e+03,9.841724347882554866e+02,9.484992027282714844e+00,-7.266727685928344727e-01,-1.032640218734741211e+00,1.490000000000000000e+02
3.516930450051524531e+03,4.698065306154526297e+02,1.371214736083257776e+03,1.852372047212995312e+03,3.100318951927247326e+02,3.417888626994722472e+02,3.470361655971948494e+03,1.045446625726741331e+03,9.484992027282714844e+00,-7.266727685928344727e-01,-1.032640218734741211e+00,1.500000000000000000e+02
3.331943354936864125e+03,6.561380742634862600e+02,1.463962691303178872e+03,1.852709307014667502e+03,3.898862796339315082e+02,5.012308801728529488e+02,3.414407222068288320e+03,1.193486679414926584e+03,9.484992027282714844e+00,-7.266727685928344727e-01,-1.032640218734741211e+00,1.510000000000000000e+02
3.225434668172891179e+03,6.779024415536521246e+02,1.528937332014019375e+03,1.909896673450632989e+03,4.586524433433851300e+02,5.538346710608709600e+02,2.695447050355123793e+03,1.238127440090939672e+03,9.484992027282714844e+00,-7.266727685928344727e-01,-1.032640218734741211e+00,1.520000000000000000e+02
3.282679219163535890e+03,5.353049138726755700e+02,1.487506082740455895e+03,1.944308013834275698e+03,4.474369391641030234e+02,4.516728396560297369e+02,1.837323655391766806e+03,1.131655632944427452e+03,9.484992027282714844e+00,-7.266727685928344727e-01,-1.032640218734741211e+00,1.530000000000000000e+02
3.363432893701370631e+03,4.522746979183928033e+02,1.408384732332488966e+03,1.907582022659223185e+03,3.980595910130025459e+02,3.602698936362069162e+02,1.242657835576281286e+03,1.035108694249997825e+03,9.484992027282714844e+00,-7.266727685928344727e-01,-1.032640218734741211e+00,1.540000000000000000e+02
3.295810116945718619e+03,5.675579264107936979e+02,1.410899533546930797e+03,1.850057416036930590e+03,4.043555220944965640e+02,4.307510451164107508e+02,5.478357250817061868e+02,1.095342727885345994e+03,9.484992027282714844e+00,-7.266727685928344727e-01,-1.032640218734741211e+00,1.550000000000000000e+02
3.113801303330155861e+03,7.459411741409433034e+02,1.500193161472434440e+03,1.851490121263157562e+03,4.827413670501637171e+02,5.901108613873061586e+02,5.673952401582209859e+01,1.241915766805040221e+03,9.484992027282714844e+00,-7.266727685928344727e-01,-1.032640218734741211e+00,1.560000000000000000e+02
3.010586404587926154e+03,7.648102554045835859e+02,1.561433107557514631e+03,1.909670150825457313e+03,5.500910688901130925e+02,6.417056943911088638e+02,2.470121156157820224e+02,1.284515363014307695e+03,9.484992027282714844e+00,-7.266727685928344727e-01,-1.032640218734741211e+00,1.570000000000000000e+02
3.071042675185419284e+03,6.201280439614529314e+02,1.518434786352353512e+03,1.943028824228223129e+03,5.383864786098713466e+02,5.381204957505335642e+02,-2.161690373931651266e+02,1.176022682396738674e+03,9.484992027282714844e+00,-7.266727685928344727e-01,-1.032640218734741211e+00,1.580000000000000000e+02
3.153628217916193535e+03,5.329009598636368992e+02,1.438175201029024720e+03,1.904537267645074280e+03,4.885143415201632706e+02,4.468838993062754525e+02,-2.406312816271936754e+03,1.077608311221219083e+03,9.484992027282714844e+00,-7.266727685928344727e-01,-1.032640218734741211e+00,1.590000000000000000e+02
3.086150540512422594e+03,6.459537091322069955e+02,1.439124073177817991e+03,1.846874422558095830e+03,4.940904054232148610e+02,5.180130010381565171e+02,-3.382423087447210492e+03,1.136304284169758830e+03,9.484992027282714844e+00,-7.266727685928344727e-01,-1.032640218734741211e+00,1.600000000000000000e+02
2.904226342128349643e+03,8.264165623024537126e+02,1.528931024708870609e+03,1.848296414694272244e+03,5.720079116222034372e+02,6.772605416500271076e+02,6.631442700116986089e+02,1.282335016377714055e+03,9.484992027282714844e+00,-7.266727685928344727e-01,-1.032640218734741211e+00,1.610000000000000000e+02
2.801809666369274055e+03,8.473078914863431237e+02,1.593061891168811599e+03,1.904607250053737516e+03,6.385966070559720720e+02,7.306457640365363204e+02,7.671740837454679422e+03,1.325679958521971457e+03,9.484992027282714844e+00,-6.119350194931030273e-01,-1.147378087043762207e+00,1.620000000000000000e+02
2.862901184381913481e+03,7.003396787382555431e+02,1.551369450059327392e+03,1.936834322681009326e+03,6.253309945085038635e+02,6.326279569377320513e+02,1.147588695246119460e+04,1.218116540074179284e+03,9.484992027282714844e+00,-6.119350194931030273e-01,-1.147378087043762207e+00,1.630000000000000000e+02
2.946439078730289111e+03,6.082322730310957013e+02,1.468716165761976299e+03,1.900562025395810451e+03,5.735522430331043324e+02,5.463630695468752947e+02,1.039315961216314099e+04,1.118708493735382945e+03,9.484992027282714844e+00,-6.119350194931030273e-01,-1.147378087043762207e+00,1.640000000000000000e+02
2.881710761966614882e+03,7.181626582398430401e+02,1.465919437134761210e+03,1.845342006533949643e+03,5.766235395503504151e+02,6.161883666655280649e+02,8.595902734811303162e+03,1.173594878161533416e+03,9.484992027282714844e+00,-6.119350194931030273e-01,-1.147378087043762207e+00,1.650000000000000000e+02
2.702858570345613771e+03,8.980028983703141421e+02,1.552499137053956474e+03,1.845631880333662593e+03,6.507653622035491026e+02,7.686827796604977721e+02,8.863909877792384577e+03,1.315080305807156037e+03,9.484992027282714844e+00,-6.119350194931030273e-01,-1.147378087043762207e+00,1.660000000000000000e+02
2.600702867893609437e+03,9.171042283203269108e+02,1.613436486015220908e+03,1.898974444246975509e+03,7.136363418564558287e+02,8.150679387179302466e+02,9.481432173725686880e+03,1.356119306333984241e+03,9.484992027282714844e+00,-6.119350194931030273e-01,-1.147378087043762207e+00,1.670000000000000000e+02
2.660108865479438464e+03,7.650127192550553445e+02,1.569416284050086688e+03,1.928871105430203897e+03,6.986472361640451254e+02,7.118751531116686238e+02,8.767209041693053223e+03,1.248461532488707235e+03,9.484992027282714844e+00,-6.119350194931030273e-01,-1.147378087043762207e+00,1.680000000000000000e+02
2.744074027338332598e+03,6.682052407644760024e+02,1.487011392285989132e+03,1.888674634396021247e+03,6.463048043969185983e+02,6.206549138651962494e+02,7.769215636799763161e+03,1.148651393002782243e+03,9.484992027282714844e+00,-6.119350194931030273e-01,-1.147378087043762207e+00,1.690000000000000000e+02
2.682575726692803983e+03,7.778645190209595057e+02,1.485197473353538044e+03,1.826369045698984337e+03,6.480019125629805785e+02,6.856147306407851829e+02,7.597566470814150307e+03,1.202303119671556487e+03,9.484992027282714844e+00,-6.119350194931030273e-01,-1.147378087043762207e+00,1.700000000000000000e+02
2.506479063428641894e+03,9.586456480370679856e+02,1.569904666566219930e+03,1.820433034481349750e+03,7.204698486618626703e+02,8.354916499515868509e+02,7.669090809714360148e+03,1.343844426432985983e+03,9.484992027282714844e+00,-6.119350194931030273e-01,-1.147378087043762207e+00,1.710000000000000000e+02
2.405193201669365408e+03,9.752976001735214595e+02,1.626894412742523855e+03,1.871945038848632066e+03,7.827909150364640709e+02,8.819563306842833299e+02,7.325322074479636285e+03,1.386703231873675122e+03,9.484992027282714844e+00,-6.119350194931030273e-01,-1.147378087043762207e+00,1.720000000000000000e+02
2.465498297209019256e+03,8.211383304119663080e+02,1.580759406922177732e+03,1.902275868532443383e+03,7.676370692164180127e+02,7.793011451201896307e+02,6.851833150399466831e+03,1.280240083616569791e+03,9.484992027282714844e+00,-6.119350194931030273e-01,-1.147378087043762207e+00,1.730000000000000000e+02
2.551536357063879223e+03,7.278796230714197009e+02,1.498300136372374254e+03,1.862182242931024120e+03,7.142028364071575197e+02,6.875654302692407782e+02,6.523248875124778351e+03,1.179624168541599374e+03,9.484992027282714844e+00,-6.119350194931030273e-01,-1.147378087043762207e+00,1.740000000000000000e+02
2.492728804085892079e+03,8.413778931271199326e+02,1.495386232293709327e+03,1.800453596609987471e+03,7.142039760661880337e+02,7.517554530747797799e+02,6.133030079094645771e+03,1.231463814596750581e+03,9.484992027282714844e+00,-6.119350194931030273e-01,-1.147378087043762207e+00,1.750000000000000000e+02
2.320447440833046130e+03,1.019157545679254326e+03,1.578055688963471766e+03,1.795164862221425210e+03,7.845553909570594442e+02,9.013008949321126693e+02,5.661808938896683685e+03,1.370337047995157263e+03,9.484992027282714844e+00,-6.119350194931030273e-01,-1.147378087043762207e+00,1.760000000000000000e+02
2.225115305513005296e+03,1.031868061789065450e+03,1.635165936471785244e+03,1.844575412902866447e+03,8.432971168853641757e+02,9.466716653988405596e+02,5.498061402058483509e+03,1.408176811698353049e+03,9.484992027282714844e+00,-6.119350194931030273e-01,-1.147378087043762207e+00,1.770000000000000000e+02
2.292086534103686972e+03,8.816245492680454845e+02,1.590557052563883190e+03,1.870939990884624422e+03,8.233792542201531433e+02,8.406391943485573393e+02,5.748453197452059612e+03,1.294540165360052470e+03,9.484992027282714844e+00,-6.119350194931030273e-01,-1.147378087043762207e+00,1.780000000000000000e+02
2.382853680041411280e+03,7.939618007388276055e+02,1.506489227960765675e+03,1.829667672025633692e+03,7.663890414449166428e+02,7.434538712105104423e+02,5.841106514450259056e+03,1.187376910588408464e+03,9.484992027282714844e+00,-6.119350194931030273e-01,-1.147378087043762207e+00,1.790000000000000000e+02
2.326422534965018713e+03,9.040672970133773561e+02,1.498136620065774878e+03,1.770343724794119225e+03,7.653797191988437589e+02,8.018709634780966553e+02,5.346475419026917734e+03,1.235329852100144308e+03,9.484992027282714844e+00,-6.119350194931030273e-01,-1.147378087043762207e+00,1.800000000000000000e+02
2.155105332254111090e+03,1.074627809493802033e+03,1.575701975507588031e+03,1.767640049572374664e+03,8.359908109371580167e+02,9.471598966919968916e+02,4.979750861546801389e+03,1.372623983436317758e+03,9.484992027282714844e+00,-6.119350194931030273e-01,-1.147378087043762207e+00,1.810000000000000000e+02
2.058849158461708612e+03,1.087797931968736975e+03,1.629577246409061445e+03,1.819648641399032385e+03,8.945081900988163852e+02,9.905545783055554239e+02,5.850557366615556020e+03,1.410456486463973306e+03,9.484992027282714844e+00,-6.119350194931030273e-01,-1.147378087043762207e+00,1.820000000000000000e+02
2.122834038269947087e+03,9.420091177968520242e+02,1.581018071205283832e+03,1.851244126409484124e+03,8.731135300205946805e+02,8.841654985592067533e+02,7.639649889247804822e+03,1.298328931904733963e+03,9.484992027282714844e+00,-5.736890435218811035e-01,-1.109132170677185059e+00,1.830000000000000000e+02
2.211362332139409773e+03,8.512260579014841824e+02,1.492749405524240046e+03,1.815451583971869695e+03,8.131587583579948841e+02,7.870819075598815289e+02,8.740138588526300737e+03,1.193462343352330208e+03,9.484992027282714844e+00,-5.736890435218811035e-01,-1.109132170677185059e+00,1.840000000000000000e+02
2.156182059026184106e+03,9.519184605421023662e+02,1.484564849757056891e+03,1.755676077214708130e+03,8.083348635301774721e+02,8.457795762814366753e+02,8.480723416737597290e+03,1.243105167056866776e+03,9.484992027282714844e+00,-5.736890435218811035e-01,-1.109132170677185059e+00,1.850000000000000000e+02
1.988148622862076081e+03,1.116339513137957965e+03,1.567474760250684540e+03,1.745984322639246784e+03,8.762132889781656786e+02,9.919190054522086939e+02,7.866392004686471410e+03,1.381438578425721062e+03,9.484992027282714844e+00,-5.736890435218811035e-01,-1.109132170677185059e+00,1.860000000000000000e+02
1.894234221222692213e+03,1.127101781814558308e+03,1.626999465124878498e+03,1.790067343865199291e+03,9.344634163668692963e+02,1.036443694049763963e+03,7.810196011858241945e+03,1.421068730201480776e+03,9.484992027282714844e+00,-5.736890435218811035e-01,-1.109132170677185059e+00,1.870000000000000000e+02
1.959966299431072912e+03,9.768718264151675612e+02,1.581524860617618742e+03,1.816167541778224404e+03,9.143958612387441462e+02,9.304413422967877523e+02,8.024401047328251479e+03,1.311738941624189465e+03,9.484992027282714844e+00,-5.736890435218811035e-01,-1.109132170677185059e+00,1.880000000000000000e+02
2.051814360308313553e+03,8.800351566037902558e+02,1.495354131126171978e+03,1.776389211903611795e+03,8.558178193058257648e+02,8.321945908667394178e+02,7.982013104718145769e+03,1.208792666512197229e+03,9.484992027282714844e+00,-5.736890435218811035e-01,-1.109132170677185059e+00,1.890000000000000000e+02
2.001380780459713606e+03,9.765119533984880036e+02,1.488305387191573118e+03,1.714202947717943061e+03,8.524591866347069526e+02,8.874637530483773844e+02,7.747828275929641677e+03,1.257962310844943204e+03,9.484992027282714844e+00,-5.736890435218811035e-01,-1.109132170677185059e+00,1.900000000000000000e+02
1.837877090741646498e+03,1.137495238955298191e+03,1.569047718334988531e+03,1.704893110618681931e+03,9.226724007999006290e+02,1.027337940345848892e+03,7.560270615081357391e+03,1.394006524710623580e+03,9.484992027282714844e+00,-5.736890435218811035e-01,-1.109132170677185059e+00,1.910000000000000000e+02
1.747907055691337519e+03,1.144559402203099125e+03,1.624183128753451001e+03,1.750205519735936832e+03,9.834951279505925186e+02,1.064200550100370492e+03,7.440981963094871389e+03,1.430583817987400835e+03,9.484992027282714844e+00,-5.736890435218811035e-01,-1.109132170677185059e+00,1.920000000000000000e+02
1.817158204395962457e+03,9.931845501038283146e+02,1.575920539040890162e+03,1.775169298140341652e+03,9.643038136129304121e+02,9.528308950829054993e+02,7.415803186943302535e+03,1.317656500888902883e+03,9.484992027282714844e+00,-5.736890435218811035e-01,-1.109132170677185059e+00,1.930000000000000000e+02
1.911413506353502271e+03,8.985705906160205814e+02,1.488625422488008098e+03,1.732814843229367852e+03,9.033552967818490060e+02,8.534555502976159005e+02,7.464055998633967647e+03,1.211287981168029091e+03,9.484992027282714844e+00,-5.736890435218811035e-01,-1.109132170677185059e+00,1.940000000000000000e+02
1.861775471415135144e+03,9.982438216122627637e+02,1.479266787479374216e+03,1.669966683348845436e+03,8.941715762202904898e+02,9.094423249952637889e+02,7.378851890354067109e+03,1.258664116538462622e+03,9.484992027282714844e+00,-5.736890435218811035e-01,-1.109132170677185059e+00,1.950000000000000000e+02
1.697474145599011536e+03,1.163390180250358753e+03,1.557022006751618846e+03,1.662011496470439397e+03,9.565481613443370179e+02,1.048972196953224739e+03,7.098119117735412146e+03,1.394379916560510537e+03,9.484992027282714844e+00,-5.736890435218811035e-01,-1.109132170677185059e+00,1.960000000000000000e+02
1.604936028652386085e+03,1.175634678122512923e+03,1.611313255044978632e+03,1.708289139562376022e+03,1.010525639341360943e+03,1.085233277793266097e+03,6.900578576514752967e+03,1.430261218035996080e+03,9.484992027282714844e+00,-5.736890435218811035e-01,-1.109132170677185059e+00,1.970000000000000000e+02
1.670861037297669100e+03,1.025223338472880641e+03,1.563556767782209590e+03,1.733600828958800776e+03,9.881218883483254558e+02,9.750044200107904544e+02,6.963973089406543295e+03,1.315878625102618116e+03,9.484992027282714844e+00,-5.736890435218811035e-01,-1.109132170677185059e+00,1.980000000000000000e+02
1.764032076347610200e+03,9.238565697048607035e+02,1.474808495660102835e+03,1.692734088080839228e+03,9.270519455614747812e+02,8.775356275783858564e+02,7.055400578819245311e+03,1.208436864174649600e+03,9.484992027282714844e+00,-5.736890435218811035e-01,-1.109132170677185059e+00,1.990000000000000000e+02
1.717095288656225421e+03,1.015118682744180205e+03,1.461864010374175905e+03,1.632967927133240210e+03,9.175456404230092176e+02,9.343035999942048875e+02,6.906215030234320693e+03,1.254792973548502687e+03,9.484992027282714844e+00,-5.736890435218811035e-01,-1.109132170677185059e+00,2.000000000000000000e+02
1.557060067929389334e+03,1.177469286295508937e+03,1.536596802931901948e+03,1.628906275734573228e+03,9.774509241611285688e+02,1.074716421076998358e+03,6.616801401114981672e+03,1.388663027655399674e+03,9.484992027282714844e+00,-5.736890435218811035e-01,-1.109132170677185059e+00,2.010000000000000000e+02
1.467872426428832114e+03,1.191443745281421343e+03,1.589437238870334113e+03,1.679482643656459913e+03,1.028173511836033867e+03,1.114034625328856691e+03,6.472109472425727290e+03,1.423643719518918715e+03,9.484992027282714844e+00,-5.736890435218811035e-01,-1.109132170677185059e+00,2.020000000000000000e+02
1.536521269112769914e+03,1.043972410575024242e+03,1.540627889226788284e+03,1.708597910832735124e+03,1.003438231625949811e+03,1.007096337121001852e+03,6.535250833181949929e+03,1.310996164822538503e+03,9.484992027282714844e+00,-5.736890435218811035e-01,-1.109132170677185059e+00,2.030000000000000000e+02
1.632576128773402161e+03,9.478105241987025238e+02,1.450760785351140385e+03,1.668896500605325400e+03,9.404454659796483611e+02,9.089533151461250782e+02,6.595802817055170635e+03,1.205010788168870022e+03,9.484992027282714844e+00,-5.736890435218811035e-01,-1.109132170677185059e+00,2.040000000000000000e+02
1.588127333275158890e+03,1.045855374280235537e+03,1.437396594610048396e+03,1.606372281382029087e+03,9.286672573565206221e+02,9.607918835401969773e+02,6.459693814743334769e+03,1.248998786379059766e+03,9.484992027282714844e+00,-5.736890435218811035e-01,-1.109132170677185059e+00,2.050000000000000000e+02
1.430156123275432947e+03,1.211291937563986266e+03,1.512632016881532309e+03,1.596967775829554739e+03,9.871129516455202975e+02,1.096200849552345971e+03,6.196526473368405277e+03,1.378961597302485188e+03,9.484992027282714844e+00,-5.736890435218811035e-01,-1.109132170677185059e+00,2.060000000000000000e+02
1.343450562182850263e+03,1.223206768258285592e+03,1.565965781337070439e+03,1.642365335120468899e+03,1.038333729053728803e+03,1.133400853191414626e+03,6.047943074254105341e+03,1.412936389048868477e+03,9.484992027282714844e+00,-5.736890435218811035e-01,-1.109132170677185059e+00,2.070000000000000000e+02
1.414706356103260077e+03,1.072877686711960678e+03,1.516602423905939304e+03,1.668530795951724485e+03,1.015047648195983356e+03,1.026036898100820054e+03,6.105052565824844351e+03,1.301313606737754526e+03,9.484992027282714844e+00,-5.736890435218811035e-01,-1.109132170677185059e+00,2.080000000000000000e+02
1.512756790054058001e+03,9.746015819776557692e+02,1.425022511141283303e+03,1.628486512944709375e+03,9.529913862416940447e+02,9.270294735415222931e+02,6.178003806936528235e+03,1.194672405452745352e+03,9.484992027282714844e+00,-5.736890435218811035e-01,-1.109132170677185059e+00,2.090000000000000000e+02
1.470441537719117150e+03,1.068784715756258493e+03,1.409512953687527897e+03,1.566899898261070120e+03,9.416287573498013899e+02,9.775734777914562983e+02,6.052310901834067408e+03,1.236598146370421546e+03,9.484992027282714844e+00,-5.736890435218811035e-01,-1.109132170677185059e+00,2.100000000000000000e+02
1.315273869647750871e+03,1.228975874985982500e+03,1.482872577150835696e+03,1.557758183187031591e+03,1.000039440084989565e+03,1.112193879259479672e+03,5.788549450499412160e+03,1.365733266747671451e+03,9.484992027282714844e+00,-5.736890435218811035e-01,-1.109132170677185059e+00,2.110000000000000000e+02
1.230717510209288776e+03,1.236577309946307651e+03,1.534964753771129381e+03,1.601849281590666124e+03,1.049812195662668728e+03,1.148954366136736098e+03,5.642816949650988136e+03,1.399756875722228870e+03,9.484992027282714844e+00,-5.736890435218811035e-01,-1.109132170677185059e+00,2.120000000000000000e+02
1.303247283877212340e+03,1.081588009143017644e+03,1.485437126476763751e+03,1.625669750409248991e+03,1.023478937820962074e+03,1.040756469348710198e+03,5.706269167715655385e+03,1.286976345926953854e+03,9.484992027282714844e+00,-5.736890435218811035e-01,-1.109132170677185059e+00,2.130000000000000000e+02
1.404414599786966846e+03,9.764998794511616325e+02,1.395078895948830450e+03,1.583164221500080657e+03,9.583928442289536633e+02,9.404249364372080890e+02,5.783319128650744460e+03,1.178069393949770983e+03,9.484992027282714844e+00,-5.736890435218811035e-01,-1.109132170677185059e+00,2.140000000000000000e+02
1.368601972728278724e+03,1.063906455073711641e+03,1.381631967745243855e+03,1.519622336020325292e+03,9.456058562244836594e+02,9.895266594006184278e+02,5.661545237707116939e+03,1.218072595596531301e+03,9.484992027282714844e+00,-5.736890435218811035e-01,-1.109132170677185059e+00,2.150000000000000000e+02
1.220737544099023125e+03,1.219257750229668090e+03,1.456901832833454591e+03,1.509104375998334035e+03,1.004641503009823509e+03,1.122746467574380176e+03,5.404137846316599280e+03,1.346372025683230504e+03,9.484992027282714844e+00,-5.736890435218811035e-01,-1.109132170677185059e+00,2.160000000000000000e+02
1.141249326380629554e+03,1.222329015781051794e+03,1.510390414331804550e+03,1.551540449646055549e+03,1.057159489081752099e+03,1.157962357621295268e+03,5.262472442861483614e+03,1.381224237415836114e+03,9.484992027282714844e+00,-5.736890435218811035e-01,-1.109132170677185059e+00,2.170000000000000000e+02
1.216608866917061277e+03,1.062789227628046774e+03,1.461912322494771161e+03,1.572534167618308402e+03,1.035153539014126181e+03,1.047806367545821104e+03,5.328846868888984318e+03,1.271176833382712857e+03,9.484992027282714844e+00,-5.736890435218811035e-01,-1.109132170677185059e+00,2.180000000000000000e+02
1.319146917106720593e+03,9.553684319126793980e+02,1.372090972817160946e+03,1.526946166171449931e+03,9.740758864147187523e+02,9.454298676165658435e+02,5.408559943848636976e+03,1.165436945380206907e+03,9.484992027282714844e+00,-5.736890435218811035e-01,-1.109132170677185059e+00,2.190000000000000000e+02
1.282529410217505301e+03,1.042226394127159892e+03,1.358176994232054085e+03,1.462342214965244239e+03,9.631839610250917758e+02,9.938145307226516252e+02,5.288795420169010868e+03,1.207173491403907974e+03,9.484992027282714844e+00,-5.736890435218811035e-01,-1.109132170677185059e+00,2.200000000000000000e+02
1.131626824113043313e+03,1.196427905352915786e+03,1.431778373090858395e+03,1.453930579511865744e+03,1.022025024523088177e+03,1.128752518871526718e+03,5.033231463397882180e+03,1.335848532333565345e+03,9.484992027282714844e+00,-5.736890435218811035e-01,-1.109132170677185059e+00,2.210000000000000000e+02
1.049108749734637058e+03,1.198897248111753470e+03,1.482766103426729160e+03,1.501285459433378037e+03,1.073056976341527388e+03,1.166591532652427759e+03,4.894463340913036518e+03,1.370634154418569778e+03,9.484992027282714844e+00,-5.736890435218811035e-01,-1.109132170677185059e+00,2.220000000000000000e+02
1.123546206600693495e+03,1.041453531351601896e+03,1.431656906910840917e+03,1.529546889556173937e+03,1.048488756156946010e+03,1.056537432293657730e+03,4.964618327890363616e+03,1.259646964741384181e+03,9.484992027282714844e+00,-5.736890435218811035e-01,-1.109132170677185059e+00,2.230000000000000000e+02
1.227057265660139365e+03,9.364895661001394274e+02,1.339413595154961286e+03,1.492270597603999704e+03,9.841107449013873065e+02,9.504646949978814519e+02,5.048242563847928068e+03,1.151301014609882259e+03,9.484992027282714844e+00,-5.736890435218811035e-01,-1.109132170677185059e+00,2.240000000000000000e+02
1.192070437879754081e+03,1.023400624422073179e+03,1.322997941394296049e+03,1.433725812602748647e+03,9.699047409285990398e+02,9.938431171763681959e+02,4.933090733863656169e+03,1.189307936564339116e+03,9.484992027282714844e+00,-5.736890435218811035e-01,-1.109132170677185059e+00,2.250000000000000000e+02
1.042875481403586491e+03,1.177677343275220665e+03,1.394364951308504033e+03,1.426484310035502403e+03,1.025301706045886249e+03,1.125171319878274744e+03,4.683095497935217281e+03,1.313988118564812794e+03,9.484992027282714844e+00,-5.736890435218811035e-01,-1.109132170677185059e+00,2.260000000000000000e+02
9.619091390790231344e+02,1.183372391004805195e+03,1.445193378375062593e+03,1.471316639654066648e+03,1.072127808942127785e+03,1.160396942818678554e+03,4.549103680814797372e+03,1.344512497971998300e+03,9.484992027282714844e+00,-5.736890435218811035e-01,-1.109132170677185059e+00,2.270000000000000000e+02
1.037428603231066063e+03,1.030940700542273589e+03,1.396801036024796076e+03,1.496466125362753246e+03,1.043015243769179051e+03,1.046884228935585270e+03,4.622421720699276193e+03,1.229377791610953409e+03,9.484992027282714844e+00,-5.736890435218811035e-01,-1.109132170677185059e+00,2.280000000000000000e+02
1.141733133721430477e+03,9.306302357346271492e+02,1.307409152433148847e+03,1.456715334833737188e+03,9.746449853703329609e+02,9.363269547939280528e+02,4.709894674705636135e+03,1.118596259961858323e+03,9.484992027282714844e+00,-5.736890435218811035e-01,-1.109132170677185059e+00,2.290000000000000000e+02
1.107964530070906221e+03,1.021936077567252141e+03,1.290379667224375680e+03,1.396112046897308346e+03,9.569600860887821909e+02,9.754080829647698465e+02,4.600786640047654146e+03,1.157071346091044006e+03,9.484992027282714844e+00,-5.736890435218811035e-01,-1.109132170677185059e+00,2.300000000000000000e+02
9.606803237668423208e+02,1.178930923233918747e+03,1.358054146847960055e+03,1.387902598377950198e+03,1.009658531926404521e+03,1.103670772960447721e+03,4.356399900088136746e+03,1.284716890544621720e+03,9.484992027282714844e+00,-5.736890435218811035e-01,-1.109132170677185059e+00,2.310000000000000000e+02
8.817547640802740716e+02,1.182522774640880016e+03,1.405833423216742176e+03,1.433764528502219946e+03,1.056249923360063804e+03,1.138412557053966339e+03,4.225453540252492530e+03,1.319634615875105283e+03,9.484992027282714844e+00,-5.736890435218811035e-01,-1.109132170677185059e+00,2.320000000000000000e+02
9.588843055975466996e+02,1.023896964372152070e+03,1.357090494020151937e+03,1.461386513401120283e+03,1.029888770293859125e+03,1.028655755681916162e+03,4.301136810128174147e+03,1.209082166677001169e+03,9.484992027282714844e+00,-5.736890435218811035e-01,-1.109132170677185059e+00,2.330000000000000000e+02
1.064655052062973027e+03,9.177967665871683494e+02,1.268950846668015402e+03,1.424130082730709546e+03,9.645776943994392241e+02,9.252816890056765260e+02,4.392953409415954411e+03,1.101136588843878599e+03,9.484992027282714844e+00,-5.736890435218811035e-01,-1.109132170677185059e+00,2.340000000000000000e+02
1.033147776493313359e+03,1.006015082015007238e+03,1.253611127573034537e+03,1.364805621396093557e+03,9.473663340365724252e+02,9.705413420721879447e+02,4.289391907211601392e+03,1.139218412175916910e+03,9.484992027282714844e+00,-6.884268522262573242e-01,-1.147378087043762207e+00,2.350000000000000000e+02
8.894337141107725984e+02,1.162409692291101237e+03,1.323555484959513706e+03,1.355634703312632155e+03,9.981293848290970345e+02,1.100132523710965870e+03,4.049954682177269206e+03,1.264154668104436496e+03,9.484992027282714844e+00,-6.884268522262573242e-01,-1.147378087043762207e+00,2.360000000000000000e+02
8.146944828297473578e+02,1.168730864612606183e+03,1.373699348227173687e+03,1.398249251402477967e+03,1.041978950576545230e+03,1.132340432694401443e+03,3.923116167400923587e+03,1.296210685895885035e+03,9.484992027282714844e+00,-6.884268522262573242e-01,-1.147378087043762207e+00,2.370000000000000000e+02
8.955346420602509170e+02,1.015797422342545815e+03,1.325941877872491204e+03,1.421967475502505749e+03,1.012484917714315088e+03,1.019732498768176811e+03,4.002384088353321204e+03,1.183119262531780805e+03,9.484992027282714844e+00,-6.884268522262573242e-01,-1.147378087043762207e+00,2.380000000000000000e+02
1.004727022538471829e+03,9.137004472049216020e+02,1.237533993951463799e+03,1.381692086897391164e+03,9.440560445445157711e+02,9.142621742759929475e+02,4.096695349389574403e+03,1.071889019740870026e+03,9.484992027282714844e+00,-6.884268522262573242e-01,-1.147378087043762207e+00,2.390000000000000000e+02
9.774939739513411041e+02,1.000372557800901632e+03,1.223004792655719029e+03,1.319929875974275092e+03,9.255835884586549582e+02,9.570001536927434245e+02,3.995125688228505169e+03,1.105923981337173245e+03,9.484992027282714844e+00,-6.884268522262573242e-01,-1.147378087043762207e+00,2.400000000000000000e+02
8.385360589626534420e+02,1.151887547252842523e+03,1.296039651940801832e+03,1.308288338582777669e+03,9.781836596575940348e+02,1.084097370602383762e+03,3.758762587762372277e+03,1.227640790527917034e+03,9.484992027282714844e+00,-6.884268522262573242e-01,-1.147378087043762207e+00,2.410000000000000000e+02
7.666522041401613023e+02,1.154058363104050386e+03,1.349388671536900347e+03,1.349121664628087274e+03,1.025801896525592838e+03,1.115646074441039673e+03,3.636061484426831157e+03,1.258893603957479172e+03,9.484992027282714844e+00,-6.884268522262573242e-01,-1.147378087043762207e+00,2.420000000000000000e+02
8.471756729925991749e+02,9.980187547327873290e+02,1.302180010403964843e+03,1.372209081141703791e+03,1.000428755324890062e+03,1.003697101684689642e+03,3.719125718979052181e+03,1.148098038832652492e+03,9.484992027282714844e+00,-6.884268522262573242e-01,-1.147378087043762207e+00,2.430000000000000000e+02
9.546640114406600333e+02,8.928114367489883989e+02,1.211891219304829974e+03,1.331534232761000567e+03,9.365331609021914119e+02,8.979181642711546374e+02,3.816938008199727847e+03,1.041786663601355940e+03,9.484992027282714844e+00,-6.884268522262573242e-01,-1.147378087043762207e+00,2.440000000000000000e+02
9.266421680776584253e+02,9.776037952268652589e+02,1.195291201179815289e+03,1.269610558492475320e+03,9.230068918360680073e+02,9.396286265885428293e+02,3.719545161496294895e+03,1.081533501924738630e+03,9.484992027282714844e+00,-6.884268522262573242e-01,-1.147378087043762207e+00,2.450000000000000000e+02
7.878315009717662178e+02,1.129600409493938969e+03,1.266907112295077241e+03,1.259975686678382772e+03,9.787681989859938767e+02,1.067569903009482005e+03,3.487394408277421462e+03,1.207563661806117125e+03,9.484992027282714844e+00,-6.884268522262573242e-01,-1.147378087043762207e+00,2.460000000000000000e+02
7.161535193467634599e+02,1.133042296627597807e+03,1.318839503026044440e+03,1.305589427163506116e+03,1.025227104987007806e+03,1.101845012730591407e+03,3.367756942400974367e+03,1.240521197095603384e+03,9.484992027282714844e+00,-6.884268522262573242e-01,-1.147378087043762207e+00,2.470000000000000000e+02
7.975924938483631195e+02,9.771638149191444427e+02,1.270492250006554968e+03,1.333447304368005462e+03,9.950485336034234933e+02,9.910147428284399211e+02,3.453580287721046261e+03,1.128377781868314742e+03,9.484992027282714844e+00,-6.884268522262573242e-01,-1.147378087043762207e+00,2.480000000000000000e+02
9.077078377980205914e+02,8.714467235489814811e+02,1.180188379601988345e+03,1.294453851478393517e+03,9.262945993587900375e+02,8.827428136821690714e+02,3.555563876385214826e+03,1.017888830433192197e+03,9.484992027282714844e+00,-6.884268522262573242e-01,-1.147378087043762207e+00,2.490000000000000000e+02
8.828528984728945943e+02,9.567895516046382909e+02,1.163585763990097803e+03,1.231291664877682706e+03,9.102725880637644877e+02,9.205032925249070104e+02,3.463636111736745079e+03,1.052686900420517759e+03,9.484992027282714844e+00,-6.884268522262573242e-01,-1.147378087043762207e+00,2.500000000000000000e+02
7.453810344437024469e+02,1.111075580659481147e+03,1.233100239843952295e+03,1.219852410665179377e+03,9.649843034367659129e+02,1.045927262899043853e+03,3.236757718511940766e+03,1.176019254311724580e+03,9.484992027282714844e+00,-6.884268522262573242e-01,-1.147378087043762207e+00,2.510000000000000000e+02
6.728385835529934411e+02,1.117164655351100919e+03,1.281539316372894973e+03,1.264436739529987790e+03,1.010150370862975251e+03,1.079302131423850369e+03,3.120799080837736255e+03,1.209167214063949359e+03,9.484992027282714844e+00,-6.884268522262573242e-01,-1.147378087043762207e+00,2.520000000000000000e+02
7.530297387985683599e+02,9.619001150568883531e+02,1.231486431309274849e+03,1.291776745633454993e+03,9.784780885478467098e+02,9.677447758345306283e+02,3.209843355732715281e+03,1.097761520536251737e+03,9.484992027282714844e+00,-6.884268522262573242e-01,-1.147378087043762207e+00,2.530000000000000000e+02
8.625919070254440157e+02,8.538814171086305578e+02,1.142015704678718976e+03,1.252653912270368892e+03,9.080021997768035362e+02,8.582793264448055197e+02,3.315060844963647469e+03,9.864937115085722326e+02,9.484992027282714844e+00,-6.884268522262573242e-01,-1.147378087043762207e+00,2.540000000000000000e+02
8.371698567322273448e+02,9.356095603861940617e+02,1.125991154061368434e+03,1.190277516425590875e+03,8.881360040540184855e+02,8.949238926867792543e+02,3.226625169540715433e+03,1.019108201574877967e+03,9.484992027282714844e+00,-6.884268522262573242e-01,-1.147378087043762207e+00,2.550000000000000000e+02
6.988217775073062512e+02,1.087046148343473760e+03,1.194350044482189332e+03,1.180224808378557100e+03,9.364693852040027195e+02,1.020230383715377684e+03,3.003574342840409372e+03,1.140167520716447143e+03,9.484992027282714844e+00,-6.884268522262573242e-01,-1.147378087043762207e+00,2.560000000000000000e+02
6.262453781025869830e+02,1.091855004651722993e+03,1.242122455971240015e+03,1.225224586742657266e+03,9.768976085131871514e+02,1.055072688008507612e+03,2.891950539120729445e+03,1.172595870350389305e+03,9.484992027282714844e+00,-6.884268522262573242e-01,-1.147378087043762207e+00,2.570000000000000000e+02
7.079291163717789459e+02,9.366692233237299661e+02,1.193934464757447131e+03,1.251482051821322784e+03,9.463562199278121625e+02,9.461190833949931402e+02,2.984585715465877001e+03,1.063110278164578631e+03,9.484992027282714844e+00,-6.884268522262573242e-01,-1.147378087043762207e+00,2.580000000000000000e+02
8.198323878349892766e+02,8.289924965390318903e+02,1.107900879655280733e+03,1.211663471761171422e+03,8.810064279100351996e+02,8.388642376290354150e+02,3.093203167521885916e+03,9.551326960600554230e+02,9.484992027282714844e+00,-6.884268522262573242e-01,-1.147378087043762207e+00,2.590000000000000000e+02
7.973028866271415609e+02,9.100327649887412917e+02,1.095238030618049379e+03,1.150349684878470725e+03,8.650777795269168564e+02,8.757776804648374309e+02,3.009077129810417318e+03,9.892196289752773737e+02,9.484992027282714844e+00,-6.884268522262573242e-01,-1.147378087043762207e+00,2.600000000000000000e+02
6.629259501855303824e+02,1.060755313454676070e+03,1.166322299191063394e+03,1.141031003704218165e+03,9.148366582477856355e+02,9.988031156504221144e+02,2.790757722306094365e+03,1.108259982733216020e+03,9.484992027282714844e+00,-6.884268522262573242e-01,-1.147378087043762207e+00,2.610000000000000000e+02
5.948649670508075360e+02,1.067531346225556263e+03,1.215268157445127144e+03,1.183851857306523016e+03,9.562346824841943089e+02,1.029511271384767497e+03,2.682308416267529537e+03,1.136523871340161350e+03,9.484992027282714844e+00,-6.884268522262573242e-01,-1.147378087043762207e+00,2.620000000000000000e+02
6.800915231044909888e+02,9.161970979216257547e+02,1.165422489590762780e+03,1.206643974231528773e+03,9.261552199414309143e+02,9.168988255912463501e+02,2.776335823874895141e+03,1.023099671689785282e+03,9.484992027282714844e+00,-6.884268522262573242e-01,-1.147378087043762207e+00,2.630000000000000000e+02
7.945275538329187839e+02,8.094396672521552318e+02,1.075436835189157136e+03,1.165979352145999655e+03,8.593642464244094299e+02,8.095107715678477689e+02,2.887022208128819329e+03,9.132983168794435187e+02,9.484992027282714844e+00,-6.884268522262573242e-01,-1.147378087043762207e+00,2.640000000000000000e+02
7.747607690222776000e+02,8.866326584786038438e+02,1.058727404503451908e+03,1.106984929643293071e+03,8.419204004178791365e+02,8.505200862673209485e+02,2.806874481809420104e+03,9.489416035682497750e+02,9.484992027282714844e+00,-6.884268522262573242e-01,-1.147378087043762207e+00,2.650000000000000000e+02
6.430818690467604029e+02,1.032137213390878060e+03,1.127398018068297461e+03,1.100740632487379116e+03,8.931627702072346437e+02,9.787419777716786484e+02,2.592324885345482471e+03,1.072481418981383285e+03,9.523238182067871094e+00,-6.119350194931030273e-01,-1.109132170677185059e+00,2.660000000000000000e+02
5.760201409908731875e+02,1.034551629804662298e+03,1.176153032588712449e+03,1.146722374856626629e+03,9.379166815454882453e+02,1.011999400634844278e+03,2.485743422038423887e+03,1.105460000214152387e+03,9.523238182067871094e+00,-6.119350194931030273e-01,-1.109132170677185059e+00,2.670000000000000000e+02
6.606135053688249172e+02,8.788621822868881281e+02,1.127700970413128744e+03,1.173359366063636116e+03,9.092497232882242315e+02,8.985458848690850573e+02,2.581205970147213520e+03,9.940985450215102901e+02,9.523238182067871094e+00,-6.119350194931030273e-01,-1.109132170677185059e+00,2.680000000000000000e+02
7.745200412936064822e+02,7.692887239833853528e+02,1.038595926209387471e+03,1.135015282189026038e+03,8.411680230271558685e+02,7.880933686060161563e+02,2.694229190432408359e+03,8.831019455985933746e+02,9.523238182067871094e+00,-6.119350194931030273e-01,-1.109132170677185059e+00,2.690000000000000000e+02
7.548245014770345733e+02,8.484126192077610540e+02,1.021034626260277946e+03,1.073478743164698244e+03,8.222117808222410531e+02,8.244512547051117508e+02,2.616091124435755773e+03,9.158605005862355029e+02,9.523238182067871094e+00,-6.119350194931030273e-01,-1.109132170677185059e+00,2.700000000000000000e+02
6.228516634675142996e+02,9.985600977019375932e+02,1.089308501822066319e+03,1.060827781938714907e+03,8.733663084707914095e+02,9.476284223703933094e+02,2.402570484824806044e+03,1.037155340590927153e+03,9.523238182067871094e+00,-6.119350194931030273e-01,-1.109132170677185059e+00,2.710000000000000000e+02
5.550508382790903852e+02,1.002953976274169690e+03,1.140640649074568501e+03,1.101323424593059826e+03,9.192094857914562454e+02,9.783401240154762490e+02,2.297820816579362145e+03,1.070162310665107725e+03,9.523238182067871094e+00,-6.119350194931030273e-01,-1.109132170677185059e+00,2.720000000000000000e+02
6.394215799592348048e+02,8.466460977239112253e+02,1.096027564828733375e+03,1.126213280288884562e+03,8.918214333584019187e+02,8.662887316284504777e+02,2.396921389466500841e+03,9.606314084076593645e+02,9.523238182067871094e+00,-6.119350194931030273e-01,-1.109132170677185059e+00,2.730000000000000000e+02
7.538085879060781735e+02,7.384796088654566120e+02,1.008671151303924489e+03,1.088991613502508699e+03,8.233503060615985305e+02,7.587268360062680586e+02,2.514121011906212516e+03,8.510622070874796918e+02,9.523238182067871094e+00,-6.119350194931030273e-01,-1.109132170677185059e+00,2.740000000000000000e+02
7.345900154075170576e+02,8.217442791001121805e+02,9.910494348919310141e+02,1.030040659860620508e+03,8.006402254118329438e+02,7.964483164313423913e+02,2.439928105487058929e+03,8.836509893482379994e+02,9.523238182067871094e+00,-6.119350194931030273e-01,-1.109132170677185059e+00,2.750000000000000000e+02
6.027799085493570601e+02,9.756110765071553033e+02,1.059286343101986859e+03,1.020916083813970545e+03,8.458712219862172788e+02,9.197004196407924610e+02,2.230535479565041896e+03,1.004302066418043978e+03,9.523238182067871094e+00,-6.119350194931030273e-01,-1.109132170677185059e+00,2.760000000000000000e+02
5.350355509240944230e+02,9.827567934657963633e+02,1.109154764309085294e+03,1.064938630374184868e+03,8.869189232115786581e+02,9.507942271060037456e+02,2.129465903410524334e+03,1.037270647469411415e+03,9.523238182067871094e+00,-6.119350194931030273e-01,-1.109132170677185059e+00,2.770000000000000000e+02
6.193529984964516188e+02,8.293711526260740357e+02,1.059587214741317439e+03,1.092126418102247044e+03,8.572107096822310268e+02,8.391591141603657888e+02,2.230678692699300882e+03,9.275040365435343119e+02,9.523238182067871094e+00,-6.119350194931030273e-01,-1.109132170677185059e+00,2.780000000000000000e+02
7.333339675800161785e+02,7.223749401866825792e+02,9.661558343390624941e+02,1.056015459030295460e+03,7.878836771626029076e+02,7.312662765020086226e+02,2.349161960466601158e+03,8.167928292499145755e+02,9.523238182067871094e+00,-6.119350194931030273e-01,-1.109132170677185059e+00,2.790000000000000000e+02
7.132915010423421336e+02,8.031159213982937217e+02,9.453897578797023016e+02,9.980471334048743302e+02,7.656048498690197448e+02,7.691560241952520300e+02,2.276899419495010079e+03,8.487543884930273634e+02,9.523238182067871094e+00,-6.119350194931030273e-01,-1.109132170677185059e+00,2.800000000000000000e+02
5.804455572898077662e+02,9.535958312683778786e+02,1.013781903130913634e+03,9.899258010272515094e+02,8.133898757094120811e+02,8.948719097659432009e+02,2.069913661449565552e+03,9.710913830450863315e+02,9.523238182067871094e+00,-6.119350194931030273e-01,-1.109132170677185059e+00,2.810000000000000000e+02
5.118042906149894407e+02,9.596174261033556832e+02,1.065500974094111371e+03,1.033671391271713219e+03,8.585610703016300249e+02,9.300785965686554846e+02,1.971019608629085269e+03,1.007675613506329682e+03,9.523238182067871094e+00,-6.119350194931030273e-01,-1.109132170677185059e+00,2.820000000000000000e+02
5.957729410703141184e+02,8.048971924902107276e+02,1.019793120692684170e+03,1.058318595991826442e+03,8.331899906280214054e+02,8.213368969948824088e+02,2.074366390248367679e+03,9.015700187629372522e+02,9.523238182067871094e+00,-6.119350194931030273e-01,-1.109132170677185059e+00,2.830000000000000000e+02
7.103981265010515926e+02,6.926212866810801643e+02,9.323291552164828317e+02,1.018431800712538461e+03,7.682984892230724654e+02,7.128835073039190320e+02,2.196769400477514864e+03,7.933529914522041508e+02,9.523238182067871094e+00,-6.119350194931030273e-01,-1.109132170677185059e+00,2.840000000000000000e+02
6.923533578328533622e+02,7.660412152588505705e+02,9.166019825196854072e+02,9.577866553574003774e+02,7.505122022748309973e+02,7.473161631061539083e+02,2.129838234381015354e+03,8.262666331629425258e+02,9.523238182067871094e+00,-6.119350194931030273e-01,-1.109132170677185059e+00,2.850000000000000000e+02
5.626486600918287877e+02,9.120968078669302486e+02,9.862744163087008928e+02,9.495376594421704795e+02,8.011618779609834746e+02,8.696378370843449375e+02,1.927871062468231685e+03,9.477552769473913941e+02,9.523238182067871094e+00,-6.119350194931030273e-01,-1.109132170677185059e+00,2.860000000000000000e+02
4.972110767072954332e+02,9.183227024679235910e+02,1.036592360288655982e+03,9.954756122501912614e+02,8.460223147763572342e+02,9.040633583496764913e+02,1.832211101415563462e+03,9.822988415439413075e+02,9.446745872497558594e+00,-6.119350194931030273e-01,-1.070886254310607910e+00,2.870000000000000000e+02
5.832386627803134616e+02,7.673825538261407928e+02,9.889064272200648702e+02,1.023664175782354505e+03,8.177295208279610961e+02,7.968045570562335342e+02,1.937425022761355649e+03,8.747999706710070313e+02,9.446745872497558594e+00,-6.119350194931030273e-01,-1.070886254310607910e+00,2.880000000000000000e+02
6.985204102033603704e+02,6.613020519823185168e+02,8.985219570368535642e+02,9.874277704199794243e+02,7.487777442023125332e+02,6.898694653476122767e+02,2.060634369962328492e+03,7.668229778223048925e+02,9.446745872497558594e+00,-6.119350194931030273e-01,-1.070886254310607910e+00,2.890000000000000000e+02
6.802612036317659658e+02,7.407959766342100920e+02,8.787434595974737022e+02,9.289127533352984756e+02,7.269238072671396367e+02,7.246525680393788207e+02,1.994233588516755844e+03,8.003498535686139803e+02,9.446745872497558594e+00,-6.119350194931030273e-01,-1.070886254310607910e+00,2.900000000000000000e+02
5.499195338726894988e+02,8.892998214015642588e+02,9.461324159626383334e+02,9.203791883638696163e+02,7.749422230501659214e+02,8.463309447096435179e+02,1.792540215017084847e+03,9.214635162450103962e+02,9.446745872497558594e+00,-6.119350194931030273e-01,-1.070886254310607910e+00,2.910000000000000000e+02
4.838757539985817857e+02,8.944283274056524533e+02,9.984235830009711208e+02,9.648024635843703436e+02,8.198472829805104993e+02,8.791156008939778985e+02,1.697253970488272898e+03,9.551692270164094225e+02,9.446745872497558594e+00,-6.119350194931030273e-01,-1.070886254310607910e+00,2.920000000000000000e+02
5.703277430245943833e+02,7.423587072063492087e+02,9.551914188262944663e+02,9.923662092009508342e+02,7.934528561552688188e+02,7.694423730784164945e+02,1.804308061671094038e+03,8.469835133600608970e+02,9.446745872497558594e+00,-6.119350194931030273e-01,-1.070886254310607910e+00,2.930000000000000000e+02
6.878763420098985080e+02,6.362073328633723577e+02,8.684394556859588192e+02,9.569787709379943408e+02,7.259040227966943348e+02,6.608636905957373529e+02,1.931668765208640252e+03,7.373518637241304532e+02,9.446745872497558594e+00,-6.119350194931030273e-01,-1.070886254310607910e+00,2.940000000000000000e+02
6.730406025352931465e+02,7.150578174846068578e+02,8.505030629789252998e+02,8.996589850984091754e+02,7.035627895428915508e+02,6.958986049462819210e+02,1.870780995298060589e+03,7.674490422906819731e+02,9.446745872497558594e+00,-6.119350194931030273e-01,-1.070886254310607910e+00,2.950000000000000000e+02
5.454190754211194871e+02,8.633768123985719285e+02,9.179683342586431536e+02,8.918233687406354875e+02,7.493375600740910158e+02,8.184297075880094781e+02,1.674270704523529275e+03,8.849405569002665288e+02,9.446745872497558594e+00,-6.119350194931030273e-01,-1.070886254310607910e+00,2.960000000000000000e+02
4.803345093001007626e+02,8.713846719255052449e+02,9.679467912059826631e+02,9.366674719865695806e+02,7.908659528577300080e+02,8.507193085020280705e+02,1.582846214507961122e+03,9.167717838547578140e+02,9.446745872497558594e+00,-6.119350194931030273e-01,-1.070886254310607910e+00,2.970000000000000000e+02
5.668099824931632611e+02,7.233708515362450271e+02,9.209147913598371815e+02,9.643900545064752805e+02,7.610115230755764060e+02,7.393085144910528470e+02,1.692344415860890877e+03,8.082847478207841050e+02,9.446745872497558594e+00,-6.119350194931030273e-01,-1.070886254310607910e+00,2.980000000000000000e+02
6.848485068084919476e+02,6.179578986761116539e+02,8.315165521742583223e+02,9.280175701980369922e+02,6.915756343235880195e+02,6.292989441610261565e+02,1.821384248549707991e+03,6.990434986004875100e+02,9.446745872497558594e+00,-6.119350194931030273e-01,-1.070886254310607910e+00,2.990000000000000000e+02
6.710065851813815243e+02,6.939496086606886820e+02,8.126602013081046607e+02,8.681343875575548736e+02,6.701428212441496726e+02,6.641646750310665084e+02,1.762321983409914537e+03,7.307309594350044790e+02,9.446745872497558594e+00,-6.119350194931030273e-01,-1.070886254310607910e+00,3.000000000000000000e+02
5.437518274678768648e+02,8.384852936056795443e+02,8.793248010026309203e+02,8.574977210322795145e+02,7.195087558452432859e+02,7.878358880056512135e+02,1.567793502944652573e+03,8.515935720402412699e+02,9.446745872497558594e+00,-6.119350194931030273e-01,-1.070886254310607910e+00,3.010000000000000000e+02
4.780466665640524297e+02,8.418368695353838120e+02,9.291567854767399695e+02,9.012869425508688437e+02,7.659533435523189837e+02,8.220480865287318011e+02,1.477676185538046411e+03,8.872011245218582189e+02,9.446745872497558594e+00,-6.119350194931030273e-01,-1.070886254310607910e+00,3.020000000000000000e+02
5.638525487119732134e+02,6.877573343710391782e+02,8.849019933699928515e+02,9.299833488085496356e+02,7.400556310113133804e+02,7.121237086111541430e+02,1.587945937605996733e+03,7.807011522176399012e+02,9.446745872497558594e+00,-6.119350194931030273e-01,-1.070886254310607910e+00,3.030000000000000000e+02
6.817244610355701298e+02,5.783816068222604372e+02,8.002533696618411341e+02,8.951533464926033048e+02,6.715950389024037577e+02,6.020729027908928401e+02,1.718702653086758801e+03,6.709989678733472829e+02,9.446745872497558594e+00,-6.119350194931030273e-01,-1.070886254310607910e+00,3.040000000000000000e+02
6.675686927738752274e+02,6.566751537724030641e+02,7.845612450690496189e+02,8.365135487166480743e+02,6.483634893686648866e+02,6.358376144921458035e+02,1.663062047563507804e+03,7.007404823193392076e+02,9.446745872497558594e+00,-6.119350194931030273e-01,-1.070886254310607910e+00,3.050000000000000000e+02
5.393423312272861949e+02,8.087665006463466852e+02,8.519006806461729866e+02,8.274381648371818301e+02,6.951780779600303504e+02,7.590880909102234000e+02,1.472628212693736714e+03,8.192963369437293295e+02,9.446745872497558594e+00,-6.119350194931030273e-01,-1.070886254310607910e+00,3.060000000000000000e+02
4.723710913200811774e+02,8.202337036559729313e+02,9.014915068964510283e+02,8.735670977125737409e+02,7.392470785017285380e+02,7.947421187342042685e+02,1.385942076725186780e+03,8.529133742343346967e+02,9.446745872497558594e+00,-6.119350194931030273e-01,-1.070886254310607910e+00,3.070000000000000000e+02
5.569499625256066793e+02,6.710353696081874659e+02,8.560902570731850574e+02,9.048121247919916641e+02,7.106993435615513590e+02,6.877655453433071671e+02,1.498842800855178211e+03,7.453744753417558968e+02,9.446745872497558594e+00,-6.119350194931030273e-01,-1.070886254310607910e+00,3.080000000000000000e+02
6.739030746593780350e+02,5.614352182825568889e+02,7.688782610122143524e+02,8.721958065294893458e+02,6.402084075643506367e+02,5.808228497398413310e+02,1.632274720830784645e+03,6.363710093455883907e+02,9.446745872497558594e+00,-6.119350194931030273e-01,-1.070886254310607910e+00,3.090000000000000000e+02
6.601575708732707426e+02,6.344716192997966573e+02,7.513782124828794622e+02,8.152087081265599409e+02,6.175577360948846035e+02,6.166272304419762804e+02,1.579420972528751008e+03,6.690516264647667413e+02,9.446745872497558594e+00,-6.119350194931030273e-01,-1.070886254310607910e+00,3.100000000000000000e+02
5.343555150179090560e+02,7.792249237092328258e+02,8.201060160609558807e+02,8.064737120911922830e+02,6.673477623592298187e+02,7.405225655956128321e+02,1.392079681042290758e+03,7.923129170059401076e+02,9.446745872497558594e+00,-6.119350194931030273e-01,-1.070886254310607910e+00,3.110000000000000000e+02
4.705258666811132571e+02,7.856567401366737613e+02,8.731065057097293902e+02,8.509728120814179420e+02,7.146323909368147724e+02,7.758656635770894354e+02,1.307647615268811933e+03,8.307114621049986454e+02,9.408499717712402344e+00,-4.971971809864044189e-01,-1.147378087043762207e+00,3.120000000000000000e+02
5.571873750526719959e+02,6.363231102685604128e+02,8.301198065847784164e+02,8.795646055456454633e+02,6.887205813116270292e+02,6.680843549357196025e+02,1.421564355847855040e+03,7.259379773059117724e+02,9.408499717712402344e+00,-4.971971809864044189e-01,-1.147378087043762207e+00,3.130000000000000000e+02
6.754436397967801895e+02,5.311145668299359386e+02,7.431088453725969885e+02,8.451201269176381174e+02,6.203572083992294210e+02,5.601444515867551672e+02,1.555515453802880074e+03,6.166375938493874855e+02,9.408499717712402344e+00,-4.971971809864044189e-01,-1.147378087043762207e+00,3.140000000000000000e+02
6.633713937672509928e+02,6.102687562232749769e+02,7.240425189366578707e+02,7.876984792879957240e+02,5.978405443676711002e+02,5.951670530009214417e+02,1.503722913368532318e+03,6.466337813229620224e+02,9.408499717712402344e+00,-4.971971809864044189e-01,-1.147378087043762207e+00,3.150000000000000000e+02
5.390330208728773869e+02,7.588695208057833952e+02,7.902565420068349340e+02,7.790502610041512526e+02,6.447889359765140398e+02,7.187242201561384718e+02,1.316989290712612274e+03,7.666347002295733546e+02,9.408499717712402344e+00,-4.971971809864044189e-01,-1.147378087043762207e+00,3.160000000000000000e+02
4.752799783026785008e+02,7.647673345110670198e+02,8.410436627171366126e+02,8.235137261472918908e+02,6.887165950398630230e+02,7.538814686625955801e+02,1.232932295848309877e+03,8.030124309717284632e+02,9.408499717712402344e+00,-4.971971809864044189e-01,-1.147378087043762207e+00,3.170000000000000000e+02
5.614107845919206738e+02,6.124679585912817856e+02,7.970604238028790860e+02,8.520550517166775535e+02,6.619144344861852005e+02,6.457390800566899998e+02,1.348102299642865546e+03,6.982463216423420818e+02,9.408499717712402344e+00,-4.971971809864044189e-01,-1.147378087043762207e+00,3.180000000000000000e+02
6.800063547803147230e+02,5.052030522601671692e+02,7.099112348577982630e+02,8.174545234991273901e+02,5.947282583884007181e+02,5.370601834172630333e+02,1.484341800223766768e+03,5.901784107914136257e+02,9.408499717712402344e+00,-4.971971809864044189e-01,-1.147378087043762207e+00,3.190000000000000000e+02
6.684795445946292602e+02,5.846404301509646757e+02,6.912505710344848922e+02,7.593347390684357379e+02,5.737020968168653781e+02,5.703815320517605869e+02,1.434603126587673614e+03,6.209660188419911719e+02,9.408499717712402344e+00,-4.971971809864044189e-01,-1.147378087043762207e+00,3.200000000000000000e+02
5.428074202964271535e+02,7.364310411697588279e+02,7.590266510711553565e+02,7.496634134513333265e+02,6.223520366112134070e+02,6.910158775373602111e+02,1.248963605225013453e+03,7.406232027586338518e+02,9.408499717712402344e+00,-4.971971809864044189e-01,-1.147378087043762207e+00,3.210000000000000000e+02
4.752260510545456782e+02,7.485793622391902318e+02,8.124945587607362540e+02,7.937924441399081843e+02,6.682863714941304352e+02,7.235213254745758604e+02,1.165832854990250780e+03,7.765446784389423556e+02,9.408499717712402344e+00,-4.971971809864044189e-01,-1.147378087043762207e+00,3.220000000000000000e+02
5.565227409590952448e+02,6.022353019306756323e+02,7.713146729157961090e+02,8.230432831492253172e+02,6.429361809950933093e+02,6.151119848047528649e+02,1.282629787064492120e+03,6.724079925122132408e+02,9.408499717712402344e+00,-4.971971809864044189e-01,-1.147378087043762207e+00,3.230000000000000000e+02
6.712806743406836176e+02,4.952750547383511730e+02,6.868819131955788180e+02,7.892077025746730214e+02,5.766550018633060972e+02,5.087561192569555715e+02,1.421006566116935574e+03,5.659134478365303949e+02,9.408499717712402344e+00,-4.971971809864044189e-01,-1.147378087043762207e+00,3.240000000000000000e+02
6.579142293245386099e+02,5.695266396016922954e+02,6.709046599859138951e+02,7.312187293265305925e+02,5.564878345549368532e+02,5.457488898985466221e+02,1.373288031203039282e+03,5.984066811828015489e+02,9.408499717712402344e+00,-4.971971809864044189e-01,-1.147378087043762207e+00,3.250000000000000000e+02
5.316404204995124019e+02,7.169585079762400710e+02,7.399823178542283131e+02,7.219238847680571780e+02,6.049159679821605096e+02,6.707729471481434302e+02,1.189251519843324786e+03,7.195613356847934483e+02,9.408499717712402344e+00,-4.971971809864044189e-01,-1.147378087043762207e+00,3.260000000000000000e+02
4.628374496275355341e+02,7.292619939026553766e+02,7.925266602271331067e+02,7.674354951263230760e+02,6.489397546536783921e+02,7.074541592091954954e+02,1.107249273146633641e+03,7.564147844850594993e+02,9.408499717712402344e+00,-4.971971809864044189e-01,-1.147378087043762207e+00,3.270000000000000000e+02
5.415588284859550186e+02,5.853806349298611167e+02,7.500336191595633863e+02,7.981257353238543146e+02,6.220706214412930422e+02,6.003630469231175084e+02,1.224780437983856245e+03,6.517837315171163937e+02,9.408499717712402344e+00,-4.971971809864044189e-01,-1.147378087043762207e+00,3.280000000000000000e+02
6.537267891078954563e+02,4.814440254268301942e+02,6.656421796891991107e+02,7.648993621521149180e+02,5.560285449973707728e+02,4.908827027153492963e+02,1.363845736364353797e+03,5.432645763930268004e+02,9.408499717712402344e+00,-4.971971809864044189e-01,-1.147378087043762207e+00,3.290000000000000000e+02
6.391313777656832826e+02,5.600286154282439384e+02,6.499747265155965579e+02,7.074130836541880853e+02,5.358978262461350823e+02,5.227663800089394499e+02,1.317092443575049401e+03,5.736806628828962857e+02,9.408499717712402344e+00,-4.971971809864044189e-01,-1.147378087043762207e+00,3.300000000000000000e+02
5.128760104114990099e+02,7.114128032250737306e+02,7.185205926328890200e+02,6.987200081062946992e+02,5.830632997477514436e+02,6.445290752020482614e+02,1.134185810962633695e+03,6.941958698127709795e+02,9.408499717712402344e+00,-4.971971809864044189e-01,-1.147378087043762207e+00,3.310000000000000000e+02
4.451706466949472087e+02,7.238528217170605785e+02,7.709995780362078222e+02,7.434246045702675474e+02,6.268109403130474675e+02,6.806933426113646419e+02,1.053467597550290520e+03,7.317710271632349759e+02,9.408499717712402344e+00,-4.971971809864044189e-01,-1.147378087043762207e+00,3.320000000000000000e+02
5.266827658374968451e+02,5.770495068030322727e+02,7.296005395947868237e+02,7.717984818505283329e+02,6.015826141211655340e+02,5.742477387833823741e+02,1.173363974730877089e+03,6.282389975587248045e+02,9.408499717712402344e+00,-4.971971809864044189e-01,-1.147378087043762207e+00,3.330000000000000000e+02
6.428785546404687921e+02,4.706784522972193372e+02,6.454516256247698038e+02,7.372076959102632827e+02,5.363415122365877323e+02,4.653360047119203955e+02,1.316891819554395624e+03,5.205131832929509983e+02,9.408499717712402344e+00,-4.971971809864044189e-01,-1.147378087043762207e+00,3.340000000000000000e+02
6.316827826324515627e+02,5.476768535223018262e+02,6.278502633968055306e+02,6.799968497927366116e+02,5.145847941035244730e+02,4.973565038707820349e+02,1.275000767088655266e+03,5.512167936010264384e+02,9.408499717712402344e+00,-4.971971809864044189e-01,-1.147378087043762207e+00,3.350000000000000000e+02
5.075654902998940088e+02,6.969677989205920312e+02,6.940856577019221731e+02,6.704401613082736731e+02,5.596660068286437308e+02,6.191213478133067838e+02,1.095506658559097559e+03,6.719875372800488549e+02,9.408499717712402344e+00,-4.971971809864044189e-01,-1.147378087043762207e+00,3.360000000000000000e+02
4.417348077780843596e+02,7.082710966042068321e+02,7.459966249643875926e+02,7.120470172037457814e+02,6.026312427290431515e+02,6.565352153715139139e+02,1.015334070659926510e+03,7.110620105247762694e+02,9.408499717712402344e+00,-4.971971809864044189e-01,-1.147378087043762207e+00,3.370000000000000000e+02
5.246574627379231970e+02,5.626306242114005727e+02,7.055358360216450819e+02,7.382638916223077103e+02,5.776950245154184813e+02,5.536223047474850318e+02,1.134217445024856715e+03,6.109232088927237783e+02,9.408499717712402344e+00,-4.971971809864044189e-01,-1.147378087043762207e+00,3.380000000000000000e+02
6.405106330260605318e+02,4.567822972305802978e+02,6.224714774921994831e+02,7.047087150717634358e+02,5.136425535873058834e+02,4.489070836000682903e+02,1.277108540134184295e+03,5.069482289600273361e+02,9.446745872497558594e+00,-5.736890435218811035e-01,-1.070886254310607910e+00,3.390000000000000000e+02
6.281893429962219670e+02,5.305863654292006686e+02,6.054793376906527556e+02,6.496241964934451971e+02,4.940052344415744301e+02,4.828883523891418008e+02,1.236176451530249324e+03,5.393311381141647871e+02,9.446745872497558594e+00,-5.736890435218811035e-01,-1.070886254310607910e+00,3.400000000000000000e+02
5.047014252988010412e+02,6.749746134616507334e+02,6.718188658631734143e+02,6.410658636133593973e+02,5.413680625749839237e+02,6.038079607009531173e+02,1.057982680661050836e+03,6.591792233429077896e+02,9.446745872497558594e+00,-5.736890435218811035e-01,-1.070886254310607910e+00,3.410000000000000000e+02
4.410558748657858814e+02,6.835814615071176377e+02,7.232846185684502416e+02,6.835606242781504989e+02,5.863231744832228287e+02,6.393468180538511660e+02,9.792188959067716496e+02,6.963100454614941555e+02,9.446745872497558594e+00,-5.736890435218811035e-01,-1.070886254310607910e+00,3.420000000000000000e+02
5.254261523992900038e+02,5.377697396694202325e+02,6.820523469462787034e+02,7.115876673453385592e+02,5.633213378712462145e+02,5.347469391826889478e+02,1.099413954521354754e+03,5.945846979476336855e+02,9.446745872497558594e+00,-5.736890435218811035e-01,-1.070886254310607910e+00,3.430000000000000000e+02
6.422577423980183084e+02,4.321096205132344039e+02,5.989272554385643161e+02,6.792622164489148417e+02,5.005586205671097559e+02,4.285315314846557158e+02,1.243235732729954179e+03,4.894108194267610088e+02,9.446745872497558594e+00,-5.736890435218811035e-01,-1.070886254310607910e+00,3.440000000000000000e+02
6.325131856730513391e+02,5.062543204771609453e+02,5.840633861569622240e+02,6.237853377120554796e+02,4.809266620552443783e+02,4.614276927633109153e+02,1.202936939009610796e+03,5.207709386489004828e+02,9.446745872497558594e+00,-5.736890435218811035e-01,-1.070886254310607910e+00,3.450000000000000000e+02
5.121591615899378667e+02,6.530124221251171548e+02,6.547811222715608892e+02,6.148359587052182178e+02,5.279753579389762308e+02,5.823065492205168994e+02,1.025144584477122407e+03,6.401972784309109556e+02,9.446745872497558594e+00,-5.736890435218811035e-01,-1.070886254310607910e+00,3.460000000000000000e+02
4.491669861770205898e+02,6.660319405592745170e+02,7.103542527655808954e+02,6.584953329137133551e+02,5.727880477729631821e+02,6.192296418000187259e+02,9.462111381719587371e+02,6.778434683628074708e+02,9.446745872497558594e+00,-5.736890435218811035e-01,-1.070886254310607910e+00,3.470000000000000000e+02
5.320660843121877406e+02,5.230701749651088903e+02,6.702608095564355608e+02,6.884445888389382162e+02,5.482656704517430626e+02,5.175092624156750389e+02,1.065670520480329287e+03,5.770811707741959253e+02,9.446745872497558594e+00,-5.736890435218811035e-01,-1.070886254310607910e+00,3.480000000000000000e+02
6.482181427508912748e+02,4.153247262119766674e+02,5.857733334141921659e+02,6.576180248038435820e+02,4.826252220238675363e+02,4.149736517821293091e+02,1.209441634187751333e+03,4.727215313275883091e+02,9.446745872497558594e+00,-5.736890435218811035e-01,-1.070886254310607910e+00,3.490000000000000000e+02
6.387495110678137280e+02,4.838079587834145059e+02,5.694581588735018158e+02,6.036733302665525116e+02,4.619317395366524579e+02,4.506018482729341486e+02,1.170636681245552609e+03,5.049229534678015625e+02,9.446745872497558594e+00,-5.736890435218811035e-01,-1.070886254310607910e+00,3.500000000000000000e+02
5.175241895142607973e+02,6.255917546492964902e+02,6.392717246579777566e+02,5.970750259548949543e+02,5.109861685041760211e+02,5.721657913381786784e+02,9.952223984891170403e+02,6.254635503340032301e+02,9.446745872497558594e+00,-5.736890435218811035e-01,-1.070886254310607910e+00,3.510000000000000000e+02
4.526227109077517525e+02,6.360415846342220902e+02,6.935110402290883940e+02,6.433641334387357347e+02,5.579211336070438847e+02,6.087447568060524645e+02,9.183243641240696888e+02,6.638164408507946064e+02,9.446745872497558594e+00,-5.736890435218811035e-01,-1.070886254310607910e+00,3.520000000000000000e+02
5.343109878499017213e+02,4.920387742393322696e+02,6.515672645316590206e+02,6.752067968845512951e+02,5.337042433032111148e+02,5.069809583634050796e+02,1.039337133804234327e+03,5.625242987492492830e+02,9.446745872497558594e+00,-5.736890435218811035e-01,-1.070886254310607910e+00,3.530000000000000000e+02
6.497458591782778967e+02,3.854257400623500871e+02,5.649186430763729732e+02,6.453793219770013820e+02,4.680808560451478115e+02,4.042039620069699595e+02,1.185003944232303184e+03,4.566819758875317348e+02,9.446745872497558594e+00,-5.736890435218811035e-01,-1.070886254310607910e+00,3.540000000000000000e+02
6.388491915228514699e+02,4.583271368123168941e+02,5.454377481272022123e+02,5.917351604996365495e+02,4.476818798078165855e+02,4.384743141042272327e+02,1.148937330829823622e+03,4.873665491150495654e+02,9.446745872497558594e+00,-5.736890435218811035e-01,-1.070886254310607910e+00,3.550000000000000000e+02
5.160831754633109085e+02,6.049594440596847562e+02,6.117065623876551399e+02,5.844745896685126354e+02,4.955590628487843787e+02,5.583021556119783781e+02,9.749459275594999781e+02,6.068758341920220118e+02,9.446745872497558594e+00,-5.736890435218811035e-01,-1.070886254310607910e+00,3.560000000000000000e+02
4.509545138158573536e+02,6.161992094109082245e+02,6.648747005858385819e+02,6.290563975065015256e+02,5.400534026538152830e+02,5.938513328786357306e+02,8.991401772570825415e+02,6.448894177885667887e+02,9.446745872497558594e+00,-5.736890435218811035e-01,-1.070886254310607910e+00,3.570000000000000000e+02
5.335911531671008561e+02,4.690844898597752035e+02,6.256139566331330570e+02,6.589375070080568548e+02,5.147102503267451539e+02,4.913019369942630874e+02,1.020578000119377975e+03,5.439095215132656449e+02,9.446745872497558594e+00,-5.736890435218811035e-01,-1.070886254310607910e+00,3.580000000000000000e+02
6.505250407918647397e+02,3.592525028288400790e+02,5.431945144426936167e+02,6.277484221159829758e+02,4.498946430054347729e+02,3.874731788522185525e+02,1.166257264498213772e+03,4.384951616315411229e+02,9.446745872497558594e+00,-5.736890435218811035e-01,-1.070886254310607910e+00,3.590000000000000000e+02
6.416660636197339045e+02,4.305028619810655073e+02,5.272731128757441184e+02,5.732996131322361180e+02,4.306270800436977879e+02,4.218018378732522251e+02,1.129778567602828844e+03,4.696654777090589050e+02,9.446745872497558594e+00,-5.736890435218811035e-01,-1.070886254310607910e+00,3.600000000000000000e+02
5.208459523909550626e+02,5.765550563564247568e+02,5.964812614482070785e+02,5.651593590028714971e+02,4.797025556538937963e+02,5.440210665255872300e+02,9.558076503555639647e+02,5.908207003102579620e+02,9.446745872497558594e+00,-5.736890435218811035e-01,-1.070886254310607910e+00,3.610000000000000000e+02
4.559804666147101671e+02,5.890071914953659871e+02,6.522974116144905565e+02,6.082998929229506757e+02,5.264897623180222581e+02,5.823786996994967922e+02,8.780748133261076873e+02,6.319328639341838425e+02,9.446745872497558594e+00,-5.736890435218811035e-01,-1.070886254310607910e+00,3.620000000000000000e+02
5.368870513482543174e+02,4.458857882587872155e+02,6.148662900722702034e+02,6.361803363700528280e+02,5.041272473182543763e+02,4.798456967427337077e+02,9.969624771511589643e+02,5.335287760199425975e+02,9.446745872497558594e+00,-5.736890435218811035e-01,-1.070886254310607910e+00,3.630000000000000000e+02
6.513745306779310340e+02,3.417258518081580405e+02,5.331194638707020204e+02,6.031827503716776846e+02,4.415139792393893003e+02,3.732486213043885073e+02,1.141872188979847124e+03,4.282763178063905798e+02,9.446745872497558594e+00,-5.736890435218811035e-01,-1.070886254310607910e+00,3.640000000000000000e+02
6.402355247988889460e+02,4.186126986315357499e+02,5.164371751051585306e+02,5.482658993584773270e+02,4.231901017230993602e+02,4.051002129321277607e+02,1.107146382164777606e+03,4.574843658291429165e+02,9.446745872497558594e+00,-5.736890435218811035e-01,-1.070886254310607910e+00,3.650000000000000000e+02
5.170856358285964234e+02,5.696186206684069475e+02,5.830086218270735117e+02,5.412857194834941765e+02,4.723675122833228670e+02,5.266938064327841857e+02,9.360589143140387023e+02,5.755077742857174599e+02,9.446745872497558594e+00,-5.736890435218811035e-01,-1.070886254310607910e+00,3.660000000000000000e+02
4.498725599847675767e+02,5.857992437027423875e+02,6.353023825756681617e+02,5.864013082604506053e+02,5.188153820450097555e+02,5.649790240732763777e+02,8.611590944373165257e+02,6.129308552341972245e+02,9.446745872497558594e+00,-5.736890435218811035e-01,-1.070886254310607910e+00,3.670000000000000000e+02
5.295008438538643532e+02,4.446286067483742954e+02,5.958724454568582587e+02,6.166889639333676314e+02,4.959554647177283186e+02,4.623142207542841788e+02,9.828718485914869234e+02,5.119419623766443692e+02,9.446745872497558594e+00,-5.736890435218811035e-01,-1.070886254310607910e+00,3.680000000000000000e+02
6.450379732231522212e+02,3.410219451098309946e+02,5.147776649181396351e+02,5.870290883537745685e+02,4.325842800789250759e+02,3.568872422768763499e+02,1.130120208362393896e+03,4.070487662411760539e+02,9.446745872497558594e+00,-5.736890435218811035e-01,-1.070886254310607910e+00,3.690000000000000000e+02
6.369610939891135786e+02,4.172139672580087790e+02,5.007460679001233075e+02,5.361270185542380204e+02,4.128816006153792841e+02,3.913577242659084732e+02,1.096270977955166018e+03,4.388819295967114158e+02,9.484992027282714844e+00,-7.649186849594116211e-01,-1.070886254310607910e+00,3.700000000000000000e+02
5.158120832026615972e+02,5.654630415801657364e+02,5.714549220691260416e+02,5.324486753692617640e+02,4.605695277432532748e+02,5.150897579748343560e+02,9.248861342956806766e+02,5.598374632450068020e+02,9.484992027282714844e+00,-7.649186849594116211e-01,-1.070886254310607910e+00,3.710000000000000000e+02
4.451351569079561159e+02,5.774307670225898619e+02,6.285051737040412263e+02,5.794720025105198147e+02,5.066234384948838851e+02,5.546032823855566676e+02,8.498992362830467755e+02,6.003898629868854186e+02,9.484992027282714844e+00,-7.649186849594116211e-01,-1.070886254310607910e+00,3.720000000000000000e+02
5.140036549903161358e+02,4.331331708529687603e+02,5.920912873762572417e+02,6.107107641015390982e+02,4.846157222342008026e+02,4.540190998199614114e+02,9.721074769665719941e+02,5.031172775312297745e+02,9.484992027282714844e+00,-7.649186849594116211e-01,-1.070886254310607910e+00,3.730000000000000000e+02
6.143817726146517089e+02,3.284756031654032995e+02,5.112388086623395793e+02,5.810547830369978328e+02,4.224241229596082121e+02,3.514193786206087680e+02,1.119942840117102605e+03,4.008806630286271684e+02,9.484992027282714844e+00,-7.649186849594116211e-01,-1.070886254310607910e+00,3.740000000000000000e+02
5.919438212439999916e+02,4.045596594912494766e+02,4.970680494660045952e+02,5.290488286644831533e+02,4.037686175759881735e+02,3.868975857480763807e+02,1.087068060866557062e+03,4.329297724747739267e+02,9.484992027282714844e+00,-7.649186849594116211e-01,-1.070886254310607910e+00,3.750000000000000000e+02
4.610557180647156201e+02,5.539861591015505837e+02,5.690720436889969278e+02,5.245576742677367292e+02,4.522672255043289624e+02,5.096239557819862966e+02,9.174125008122064173e+02,5.532131136208772659e+02,9.484992027282714844e+00,-7.649186849594116211e-01,-1.070886254310607910e+00,3.760000000000000000e+02
3.868058023769408464e+02,5.695297672117740149e+02,6.266734203768282896e+02,5.728208928361782455e+02,4.984808346836289275e+02,5.491853529323198018e+02,8.440576409601490013e+02,5.940898856787462137e+02,9.484992027282714844e+00,-7.649186849594116211e-01,-1.070886254310607910e+00,3.770000000000000000e+02
4.580767341432801913e+02,4.284609580601172638e+02,5.877426236992250779e+02,6.065009750542085385e+02,4.762207399887047359e+02,4.505404881442445912e+02,9.672863417283515446e+02,4.975589526478797779e+02,9.484992027282714844e+00,-7.649186849594116211e-01,-1.070886254310607910e+00,3.780000000000000000e+02
5.645525079680373892e+02,3.223946182554282132e+02,5.028449718008268974e+02,5.778653910136781633e+02,4.142004302921195631e+02,3.487858713494351832e+02,1.116564832554751774e+03,3.953695227013304248e+02,9.484992027282714844e+00,-7.649186849594116211e-01,-1.070886254310607910e+00,3.790000000000000000e+02
5.481134109197737416e+02,3.941977730534053990e+02,4.854606301834064652e+02,5.248542667195579270e+02,3.956445914590512984e+02,3.827562364107434405e+02,1.085903021945778164e+03,4.271686145318453782e+02,9.484992027282714844e+00,-7.649186849594116211e-01,-1.070886254310607910e+00,3.800000000000000000e+02
4.208374208814348094e+02,5.428193763708113693e+02,5.547732939363486366e+02,5.190548464591120137e+02,4.430307519795824192e+02,5.041863199069412076e+02,9.175937759668158833e+02,5.474032989181723678e+02,9.484992027282714844e+00,-7.649186849594116211e-01,-1.070886254310607910e+00,3.810000000000000000e+02
3.489523974151525181e+02,5.621532440385781229e+02,6.097855161315383157e+02,5.664592554433402256e+02,4.879817460151243722e+02,5.437454716647043824e+02,8.437406002118223114e+02,5.879569781835380127e+02,9.484992027282714844e+00,-7.649186849594116211e-01,-1.070886254310607910e+00,3.820000000000000000e+02
4.235394587623304687e+02,4.240849626545677893e+02,5.702381891547847772e+02,5.987636939475487452e+02,4.664388200950488681e+02,4.437603641819150653e+02,9.660318445862067165e+02,4.904605643412796780e+02,9.484992027282714844e+00,-7.649186849594116211e-01,-1.070886254310607910e+00,3.830000000000000000e+02
5.341454880877572577e+02,3.176285502458049450e+02,4.876481796407024376e+02,5.680937709039353649e+02,4.066089620917409775e+02,3.381681254683717270e+02,1.115597453904600115e+03,3.868650223405056749e+02,9.484992027282714844e+00,-7.649186849594116211e-01,-1.070886254310607910e+00,3.840000000000000000e+02
5.207328392094204901e+02,3.888078557500848547e+02,4.732260977050609654e+02,5.134637020774680423e+02,3.895438740958343260e+02,3.686303140640666243e+02,1.086498907764718751e+03,4.171282020726866904e+02,9.484992027282714844e+00,-7.649186849594116211e-01,-1.070886254310607910e+00,3.850000000000000000e+02
3.945639769810222788e+02,5.381328337131490116e+02,5.442332167343556648e+02,5.064249087392454385e+02,4.374634349597763503e+02,4.888901827985828277e+02,9.201215226355852792e+02,5.362039073428240954e+02,9.484992027282714844e+00,-7.649186849594116211e-01,-1.070886254310607910e+00,3.860000000000000000e+02
3.219749924901116174e+02,5.572263389497456956e+02,6.010577960404189071e+02,5.520722167428248213e+02,4.829394290213385830e+02,5.281376382260350510e+02,8.453100988273072289e+02,5.763855709223862505e+02,9.484992027282714844e+00,-7.649186849594116211e-01,-1.070886254310607910e+00,3.870000000000000000e+02
3.961644668028457090e+02,4.177628863585196086e+02,5.646061232412612299e+02,5.826637819612369640e+02,4.609932308612478664e+02,4.272971887668172712e+02,9.650347795225970913e+02,4.784932623232380138e+02,9.484992027282714844e+00,-7.649186849594116211e-01,-1.070886254310607910e+00,3.880000000000000000e+02
5.066969672305422137e+02,3.118750399868586101e+02,4.845548378633247921e+02,5.524512170587695437e+02,3.994459638473199448e+02,3.221504663233645260e+02,1.110810995215666480e+03,3.741120217037532711e+02,9.484992027282714844e+00,-7.649186849594116211e-01,-1.070886254310607910e+00,3.890000000000000000e+02
4.935562870632275008e+02,3.849946775637654355e+02,4.697192562236814410e+02,5.007516707233953639e+02,3.812756799759881687e+02,3.559003416551277041e+02,1.078068930923473090e+03,4.047012733804440359e+02,9.484992027282714844e+00,-7.649186849594116211e-01,-1.070886254310607910e+00,3.900000000000000000e+02
3.684120725668908563e+02,5.335965898872964317e+02,5.380884639621726819e+02,4.972645969360892195e+02,4.299570378665885073e+02,4.807100209396667196e+02,9.085374279653478879e+02,5.264582388555936632e+02,9.484992027282714844e+00,-5.736890435218811035e-01,-1.070886254310607910e+00,3.910000000000000000e+02
2.983959644365240820e+02,5.496958222830216982e+02,5.926445988906416460e+02,5.457895609608240193e+02,4.762007106643650332e+02,5.232604093048139475e+02,8.323149036553804763e+02,5.697440963451808784e+02,9.484992027282714844e+00,-5.736890435218811035e-01,-1.070886254310607910e+00,3.920000000000000000e+02
3.749657864533364773e+02,4.097855521464880439e+02,5.556492290866299300e+02,5.784703849732250092e+02,4.537510999395817635e+02,4.240633091682248050e+02,9.499925702564942185e+02,4.728187465374940075e+02,9.484992027282714844e+00,-5.736890435218811035e-01,-1.070886254310607910e+00,3.930000000000000000e+02
