F3,F4,C3,C4,P3,P4,Cz,Pz,Accel_x,Accel_y,Accel_z,Sample
-2.773958840407431126e-11,-8.185452315956354141e-12,3.274180926382541656e-11,-1.318767317570745945e-11,1.341504685115069151e-11,2.751221472863107920e-11,-1.091393642127513885e-11,6.821210263296961784e-13,9.446745872497558594e+00,-8.796565532684326172e-01,-1.300361871719360352e+00,0.000000000000000000e+00
-5.239883059876824518e+02,-2.182836866571417431e+02,-2.821329987898077434e+02,-5.540083710233066085e+02,-3.381810083312775532e+02,-4.629991002408723944e+02,-1.117010502924047614e+03,-6.819034708070846591e+02,9.446745872497558594e+00,-8.796565532684326172e-01,-1.300361871719360352e+00,1.000000000000000000e+00
-1.161799545036618383e+03,-4.486470447370602415e+02,-7.607326395270488320e+02,-9.345049318540243348e+02,-8.410375320316848047e+02,-7.047145668411963015e+02,-2.136316079247226298e+03,-1.141849768248332566e+03,9.446745872497558594e+00,-8.796565532684326172e-01,-1.300361871719360352e+00,2.000000000000000000e+00
-1.813260827198385414e+03,-7.891906865559564039e+02,-1.378120602070978975e+03,-1.218820446717731102e+03,-1.456049862206131593e+03,-9.291069537621140171e+02,-3.058421555263779737e+03,-1.478527195029126688e+03,9.446745872497558594e+00,-8.796565532684326172e-01,-1.300361871719360352e+00,3.000000000000000000e+00
-2.290422391403163147e+03,-1.208578416883171485e+03,-1.903721218207786251e+03,-1.556024201895801298e+03,-1.988468638117377850e+03,-1.336025328206939548e+03,-3.915355907857519014e+03,-1.840611045017861670e+03,9.446745872497558594e+00,-8.796565532684326172e-01,-1.300361871719360352e+00,4.000000000000000000e+00
-2.627803586806297517e+03,-1.503518558307184321e+03,-2.204624519431210956e+03,-1.891197336103884481e+03,-2.325471179377786029e+03,-1.713539818606518111e+03,-4.793162348131903855e+03,-2.135061393405469062e+03,9.446745872497558594e+00,-8.796565532684326172e-01,-1.300361871719360352e+00,5.000000000000000000e+00
-2.944049913292046767e+03,-1.674092484551802954e+03,-2.367811788189187610e+03,-2.080879041926911668e+03,-2.537052875768188642e+03,-1.891761533156569840e+03,-5.617845405811666751e+03,-2.294482708171059130e+03,9.446745872497558594e+00,-8.796565532684326172e-01,-1.300361871719360352e+00,6.000000000000000000e+00
-3.211174512856905494e+03,-1.986794151581355436e+03,-2.567632464578783583e+03,-2.157339129281373062e+03,-2.768636353786044310e+03,-2.112948600894503215e+03,-6.279848396799813600e+03,-2.509841927389034026e+03,9.446745872497558594e+00,-8.796565532684326172e-01,-1.300361871719360352e+00,7.000000000000000000e+00
-3.434226033818245924e+03,-2.482802362859945333e+03,-2.861710233782717296e+03,-2.276681957495785355e+03,-3.072377131364052275e+03,-2.550377690063923183e+03,-6.971616823562793797e+03,-2.898368534405107312e+03,9.446745872497558594e+00,-8.796565532684326172e-01,-1.300361871719360352e+00,8.000000000000000000e+00
-3.834948969476966340e+03,-2.817617254188498464e+03,-3.135924688294830503e+03,-2.473874782548838539e+03,-3.356835079668268008e+03,-2.923423484666555851e+03,-7.945873245015434804e+03,-3.230368137363350343e+03,9.446745872497558594e+00,-8.796565532684326172e-01,-1.300361871719360352e+00,9.000000000000000000e+00
-4.517855149640286982e+03,-2.808812402599831330e+03,-3.258612964275314880e+03,-2.636360067951934525e+03,-3.514888465286987412e+03,-2.975751596591631824e+03,-8.940625691220353474e+03,-3.283404056635775305e+03,9.446745872497558594e+00,-8.796565532684326172e-01,-1.300361871719360352e+00,1.000000000000000000e+01
-5.261511745744956897e+03,-2.759659636871894691e+03,-3.262317820332844349e+03,-2.686232941383746947e+03,-3.574032943427816917e+03,-2.925595047117201830e+03,-9.607376465554492825e+03,-3.222044545002698669e+03,9.446745872497558594e+00,-8.796565532684326172e-01,-1.300361871719360352e+00,1.100000000000000000e+01
-5.956394705141203303e+03,-2.984490700729322270e+03,-3.306724588672668688e+03,-2.669706446368700199e+03,-3.657882270157112544e+03,-3.088876005001074191e+03,-1.043305559419107885e+04,-3.340805235792064650e+03,9.446745872497558594e+00,-8.796565532684326172e-01,-1.300361871719360352e+00,1.200000000000000000e+01
-6.702077150650651674e+03,-3.347257216374854124e+03,-3.466381483756391845e+03,-2.684285530879137696e+03,-3.821977122363052331e+03,-3.398550660542153310e+03,-1.191842923789408633e+04,-3.622704552954481642e+03,9.446745872497558594e+00,-8.796565532684326172e-01,-1.300361871719360352e+00,1.300000000000000000e+01
-7.228773051282441884e+03,-3.520685905746929620e+03,-3.638008611917404778e+03,-2.773890892481835635e+03,-3.998577704813371383e+03,-3.585417463240771212e+03,-1.319002773425420855e+04,-3.807120786319348554e+03,9.446745872497558594e+00,-8.796565532684326172e-01,-1.300361871719360352e+00,1.400000000000000000e+01
-7.128393192663245827e+03,-3.443699840122631940e+03,-3.680521878478767576e+03,-2.872534647164247417e+03,-4.084600422870214061e+03,-3.567944295122766562e+03,-1.342621531028344725e+04,-3.771669868952578327e+03,9.446745872497558594e+00,-8.796565532684326172e-01,-1.300361871719360352e+00,1.500000000000000000e+01
-6.811212143964838106e+03,-3.334093500368086097e+03,-3.598334339500666829e+03,-2.867931633680741470e+03,-4.056997567684379646e+03,-3.482482685256021341e+03,-1.376506522259677149e+04,-3.661491639610333550e+03,9.446745872497558594e+00,-8.796565532684326172e-01,-1.300361871719360352e+00,1.600000000000000000e+01
-7.053367666532743897e+03,-3.417604389160377650e+03,-3.551758479011077725e+03,-2.771927458575667060e+03,-4.031115866712966636e+03,-3.517831587282787950e+03,-1.513802771150667832e+04,-3.693034032879444567e+03,9.446745872497558594e+00,-8.796565532684326172e-01,-1.300361871719360352e+00,1.700000000000000000e+01
-7.704565763617765697e+03,-3.695318953583118855e+03,-3.657840936232580134e+03,-2.737977085159396211e+03,-4.141862518841447127e+03,-3.738197847857816669e+03,-1.610630504826208198e+04,-3.898740305274270213e+03,9.446745872497558594e+00,-8.796565532684326172e-01,-1.300361871719360352e+00,1.800000000000000000e+01
-8.140244679678136890e+03,-3.883033077081901865e+03,-3.801455509169946708e+03,-2.818930032575718542e+03,-4.309469923339161141e+03,-3.934438366225020218e+03,-1.599240627221665272e+04,-4.058309408343245650e+03,9.446745872497558594e+00,-8.796565532684326172e-01,-1.300361871719360352e+00,1.900000000000000000e+01
-8.392324962045402572e+03,-3.736830963712218363e+03,-3.773773071627165791e+03,-2.863743741914589918e+03,-4.310268849395176403e+03,-3.840787929527313281e+03,-1.678801370380218214e+04,-3.965634722110439270e+03,9.446745872497558594e+00,-8.796565532684326172e-01,-1.300361871719360352e+00,2.000000000000000000e+01
-8.575513934095641162e+03,-3.497345335862686625e+03,-3.613322896197872524e+03,-2.780268678857493796e+03,-4.172592497177205587e+03,-3.611853766527585321e+03,-1.864540910212018207e+04,-3.765867160438955580e+03,9.446745872497558594e+00,-8.796565532684326172e-01,-1.300361871719360352e+00,2.100000000000000000e+01
-8.497119674664125341e+03,-3.607928452220006875e+03,-3.573906632927782994e+03,-2.687913481776883600e+03,-4.173768516896901019e+03,-3.665833279380552995e+03,-1.880884408543249447e+04,-3.786075750707425868e+03,9.446745872497558594e+00,-8.796565532684326172e-01,-1.300361871719360352e+00,2.200000000000000000e+01
-8.767523708601756880e+03,-3.940024864137504210e+03,-3.697941359665484015e+03,-2.673075883993763455e+03,-4.328467742084159909e+03,-3.945127725719198224e+03,-1.792100597755548733e+04,-4.004574391534569259e+03,9.446745872497558594e+00,-8.796565532684326172e-01,-1.300361871719360352e+00,2.300000000000000000e+01
-1.003709875119067874e+04,-3.951439394945280583e+03,-3.750947956530950250e+03,-2.659661032575197169e+03,-4.355018276862590028e+03,-3.973555813006180870e+03,-1.961517638497597363e+04,-4.067836699390025387e+03,9.446745872497558594e+00,-8.796565532684326172e-01,-1.300361871719360352e+00,2.400000000000000000e+01
-1.085311595563128139e+04,-3.669766879192111446e+03,-3.657814637975552614e+03,-2.629963612047701190e+03,-4.252262896416599688e+03,-3.747377513566643756e+03,-2.203394187333064474e+04,-3.895257497143372348e+03,9.446745872497558594e+00,-8.796565532684326172e-01,-1.300361871719360352e+00,2.500000000000000000e+01
-9.843721362295975268e+03,-3.631577085256559258e+03,-3.592571227656652809e+03,-2.639273480676709369e+03,-4.278870239272064282e+03,-3.717885897553187533e+03,-2.071488014959988504e+04,-3.781261643289409221e+03,9.446745872497558594e+00,-8.796565532684326172e-01,-1.300361871719360352e+00,2.600000000000000000e+01
-9.411577184534937260e+03,-3.805049108916415207e+03,-3.572195455037693137e+03,-2.574334126427383126e+03,-4.320063173453020681e+03,-3.831597117331104528e+03,-1.973371177421639732e+04,-3.820615433266500986e+03,9.446745872497558594e+00,-8.796565532684326172e-01,-1.300361871719360352e+00,2.700000000000000000e+01
-1.182898391313385946e+04,-3.708741113267148648e+03,-3.470682185374729670e+03,-2.346307331095305017e+03,-4.109245226136420570e+03,-3.679080130655061112e+03,-2.499154914579074830e+04,-3.815025353506127431e+03,9.446745872497558594e+00,-8.796565532684326172e-01,-1.300361871719360352e+00,2.800000000000000000e+01
-1.280606918174579732e+04,-3.648674745197028187e+03,-3.477714687250624138e+03,-2.298151342793421463e+03,-4.071203127333681095e+03,-3.635108125553881109e+03,-2.752229321223118677e+04,-3.834295394197698897e+03,9.446745872497558594e+00,-8.796565532684326172e-01,-1.300361871719360352e+00,2.900000000000000000e+01
-6.393912115065692888e+03,-4.487756047353538634e+03,-3.934346265433911867e+03,-2.829082208772403646e+03,-4.897742269083228166e+03,-4.536390171672939687e+03,-1.296390427022208860e+04,-4.218623131027705313e+03,9.446745872497558594e+00,-8.796565532684326172e-01,-1.300361871719360352e+00,3.000000000000000000e+01
4.483551439091678731e+03,-6.045925853663861744e+03,-4.659640794430524693e+03,-3.641322417336386934e+03,-6.254962628629818937e+03,-6.118102689842711698e+03,1.256217838895058048e+04,-4.904541266190162787e+03,9.446745872497558594e+00,-7.649186849594116211e-01,-1.338607788085937500e+00,3.100000000000000000e+01
1.077826388853263779e+04,-7.109030608456187110e+03,-5.079144725352387468e+03,-4.029262274018693461e+03,-7.042492327053657391e+03,-7.135723357977454725e+03,2.728202866692878160e+04,-5.389662181653751759e+03,9.446745872497558594e+00,-7.649186849594116211e-01,-1.338607788085937500e+00,3.200000000000000000e+01
1.011024509768158532e+04,-7.180198749893333115e+03,-5.054137729372147078e+03,-3.887775474383643086e+03,-6.971229082461350117e+03,-7.153776707700768384e+03,2.477482986799872378e+04,-5.462414908248843858e+03,9.446745872497558594e+00,-7.649186849594116211e-01,-1.338607788085937500e+00,3.300000000000000000e+01
8.339187231004070782e+03,-6.924730681410723264e+03,-4.954447884937329036e+03,-3.737823705723774765e+03,-6.761069181231068796e+03,-6.905702822705141443e+03,1.921555335771210230e+04,-5.373720131689307891e+03,9.446745872497558594e+00,-7.649186849594116211e-01,-1.338607788085937500e+00,3.400000000000000000e+01
8.996558055055977093e+03,-6.843787915269167570e+03,-4.946360736517832265e+03,-3.805829746109969619e+03,-6.809705319885921199e+03,-6.875869173639679502e+03,1.990942848351248904e+04,-5.288543511427749763e+03,9.446745872497558594e+00,-7.649186849594116211e-01,-1.338607788085937500e+00,3.500000000000000000e+01
9.725453802367146636e+03,-6.773420778889747453e+03,-4.858607272574963645e+03,-3.806443875751177529e+03,-6.805084838340012539e+03,-6.823866910284897131e+03,2.126473102934393319e+04,-5.154773317911499362e+03,9.446745872497558594e+00,-7.649186849594116211e-01,-1.338607788085937500e+00,3.600000000000000000e+01
9.016748571937301676e+03,-6.678775385557543814e+03,-4.702033656526740742e+03,-3.619769421688800321e+03,-6.630196580318378437e+03,-6.686388229199654234e+03,1.876898293676970206e+04,-5.059766481876049511e+03,9.446745872497558594e+00,-7.649186849594116211e-01,-1.338607788085937500e+00,3.700000000000000000e+01
8.680129789309854459e+03,-6.777109986729424236e+03,-4.692509917987390509e+03,-3.495651042797344417e+03,-6.587023654246238948e+03,-6.741099335775268628e+03,1.656535224363386806e+04,-5.147981478420144413e+03,9.446745872497558594e+00,-7.649186849594116211e-01,-1.338607788085937500e+00,3.800000000000000000e+01
9.335041571188723537e+03,-6.908360460363427592e+03,-4.788241422071576380e+03,-3.544272234954965370e+03,-6.704354021840877067e+03,-6.892349751341747833e+03,1.711230379297622858e+04,-5.256963915884722155e+03,9.446745872497558594e+00,-7.649186849594116211e-01,-1.338607788085937500e+00,3.900000000000000000e+01
9.441841715559894510e+03,-6.732921772352312473e+03,-4.734520212710505803e+03,-3.569982724991230043e+03,-6.677298820333911863e+03,-6.776228138613088049e+03,1.696762392251847268e+04,-5.128897170607781845e+03,9.446745872497558594e+00,-7.649186849594116211e-01,-1.338607788085937500e+00,4.000000000000000000e+01
8.791894228018980357e+03,-6.428278761383126039e+03,-4.528483263618963974e+03,-3.453634395890216183e+03,-6.477051579475225481e+03,-6.488352767977776239e+03,1.457725737193373061e+04,-4.878798685778519939e+03,9.446745872497558594e+00,-7.649186849594116211e-01,-1.338607788085937500e+00,4.100000000000000000e+01
8.661095903963714591e+03,-6.425039471341539866e+03,-4.415012491117980971e+03,-3.309440271654577373e+03,-6.375902089850843367e+03,-6.433859840002447527e+03,1.287901409696277551e+04,-4.825533744066997315e+03,9.446745872497558594e+00,-7.649186849594116211e-01,-1.338607788085937500e+00,4.200000000000000000e+01
9.108236459885545628e+03,-6.653246173790819739e+03,-4.470483166018260818e+03,-3.249729348781798308e+03,-6.440605070313667966e+03,-6.611180817916788328e+03,1.318100564582159859e+04,-4.972637292687709305e+03,9.446745872497558594e+00,-7.649186849594116211e-01,-1.338607788085937500e+00,4.300000000000000000e+01
9.175404576475768408e+03,-6.682296743748976951e+03,-4.518969977488004588e+03,-3.250812570733212851e+03,-6.476942705753762311e+03,-6.658445327268418623e+03,1.292047502288081887e+04,-5.026187921492986789e+03,9.446745872497558594e+00,-7.649186849594116211e-01,-1.338607788085937500e+00,4.400000000000000000e+01
8.827799789588101703e+03,-6.420904811838277965e+03,-4.427745192732782925e+03,-3.237215475851126939e+03,-6.384616672854263015e+03,-6.457032172127406739e+03,1.064349252471503314e+04,-4.852927186509015883e+03,9.446745872497558594e+00,-7.649186849594116211e-01,-1.338607788085937500e+00,4.500000000000000000e+01
8.666284917808905448e+03,-6.190708820740964256e+03,-4.264148865828740782e+03,-3.160086174294298416e+03,-6.249928298059866393e+03,-6.240789221275446835e+03,8.778324309180927230e+03,-4.636233677320569768e+03,9.446745872497558594e+00,-7.649186849594116211e-01,-1.338607788085937500e+00,4.600000000000000000e+01
8.728982522451480691e+03,-6.219558729346477776e+03,-4.169998364986985507e+03,-3.034436801898897102e+03,-6.172939753174002362e+03,-6.211023935905504004e+03,9.164496522872397691e+03,-4.591225139284891156e+03,9.446745872497558594e+00,-7.649186849594116211e-01,-1.338607788085937500e+00,4.700000000000000000e+01
8.763775880775971018e+03,-6.378761533166803019e+03,-4.189914757952161381e+03,-2.944042271046064798e+03,-6.172304777179631856e+03,-6.312789083179482986e+03,9.002282631320525979e+03,-4.695447251645716278e+03,9.446745872497558594e+00,-7.649186849594116211e-01,-1.338607788085937500e+00,4.800000000000000000e+01
8.761117029945457034e+03,-6.392890858512972045e+03,-4.225704058084569624e+03,-2.940355545480613273e+03,-6.186864740791747863e+03,-6.343625981744948149e+03,5.706730833460841495e+03,-4.737566630008377615e+03,9.446745872497558594e+00,-7.649186849594116211e-01,-1.338607788085937500e+00,4.900000000000000000e+01
8.697784149687398894e+03,-6.176499674688869163e+03,-4.151617703497102411e+03,-2.949538893508988622e+03,-6.125036098780527027e+03,-6.189131717710271914e+03,3.800606015297221347e+03,-4.587840891761265084e+03,9.446745872497558594e+00,-7.649186849594116211e-01,-1.338607788085937500e+00,5.000000000000000000e+01
8.509935023676980563e+03,-5.939901538499243543e+03,-3.982691034924906944e+03,-2.870096483650514983e+03,-5.982968452601877289e+03,-5.970241337615702832e+03,9.833159207218463052e+03,-4.371980997760878381e+03,9.446745872497558594e+00,-7.649186849594116211e-01,-1.338607788085937500e+00,5.100000000000000000e+01
8.377584937792325945e+03,-5.929193282695534435e+03,-3.869357528798971089e+03,-2.729677168311042351e+03,-5.876916834887736513e+03,-5.908703724401811996e+03,2.103261898886038034e+04,-4.313411100776935200e+03,9.408499717712402344e+00,-7.266727685928344727e-01,-1.338607788085937500e+00,5.200000000000000000e+01
8.467745984496759775e+03,-6.086530176829210177e+03,-3.889973728819446478e+03,-2.645662460963943431e+03,-5.882350579328710410e+03,-6.019432640753626401e+03,2.741735890175462191e+04,-4.423210668473082478e+03,9.408499717712402344e+00,-7.266727685928344727e-01,-1.338607788085937500e+00,5.300000000000000000e+01
8.577767192747673107e+03,-6.112943011181264410e+03,-3.933373484625974925e+03,-2.652087143212459068e+03,-5.912691295075772359e+03,-6.069489124821056066e+03,2.569750217556824646e+04,-4.474294578834685126e+03,9.408499717712402344e+00,-7.266727685928344727e-01,-1.338607788085937500e+00,5.400000000000000000e+01
8.449640627904722351e+03,-5.888137325712533311e+03,-3.854384578337868788e+03,-2.656402188515626676e+03,-5.842792992478128326e+03,-5.906744950360009170e+03,2.222586108158698698e+04,-4.319257848306441701e+03,9.408499717712402344e+00,-7.266727685928344727e-01,-1.338607788085937500e+00,5.500000000000000000e+01
8.197802653864742751e+03,-5.645846221559082551e+03,-3.679086546352881669e+03,-2.574472499258400603e+03,-5.690754418485686983e+03,-5.681903202461277033e+03,2.164811120354683953e+04,-4.100676639298163536e+03,9.408499717712402344e+00,-7.266727685928344727e-01,-1.338607788085937500e+00,5.600000000000000000e+01
8.116373318905661108e+03,-5.642440584608598328e+03,-3.566794185169451794e+03,-2.443956046807686562e+03,-5.588346036572031153e+03,-5.632760635988473950e+03,2.170391366576889777e+04,-4.050071589464390399e+03,9.408499717712402344e+00,-7.266727685928344727e-01,-1.338607788085937500e+00,5.700000000000000000e+01
8.235193842860498989e+03,-5.796337676314285090e+03,-3.587585684894881524e+03,-2.368055041240170340e+03,-5.593649358670683796e+03,-5.747558984696113839e+03,2.009697169114866119e+04,-4.163599072166032784e+03,9.408499717712402344e+00,-7.266727685928344727e-01,-1.338607788085937500e+00,5.800000000000000000e+01
8.304602742158935143e+03,-5.807846790340992811e+03,-3.627466613549299836e+03,-2.374911173252970457e+03,-5.614195258654544887e+03,-5.786093053134243746e+03,1.842314625118295953e+04,-4.210386673178261844e+03,9.408499717712402344e+00,-7.266727685928344727e-01,-1.338607788085937500e+00,5.900000000000000000e+01
8.170283044653253455e+03,-5.579816207284276970e+03,-3.548751648899952670e+03,-2.381397709230053351e+03,-5.538747580428623223e+03,-5.616778440381756809e+03,1.804286244774884835e+04,-4.054269128443975205e+03,9.408499717712402344e+00,-7.266727685928344727e-01,-1.338607788085937500e+00,6.000000000000000000e+01
7.940086996012641976e+03,-5.344163036971047404e+03,-3.377603105138843148e+03,-2.303548488997032564e+03,-5.385367221701688322e+03,-5.390512294410326831e+03,1.771911352149806771e+04,-3.836844061015638545e+03,9.408499717712402344e+00,-7.266727685928344727e-01,-1.338607788085937500e+00,6.100000000000000000e+01
7.853297021134428178e+03,-5.344016170179340406e+03,-3.268519097130687896e+03,-2.173277182147245185e+03,-5.279422764716719030e+03,-5.335753260934308855e+03,1.650467578997698729e+04,-3.782923144726457849e+03,9.408499717712402344e+00,-7.266727685928344727e-01,-1.338607788085937500e+00,6.200000000000000000e+01
7.950598135735812320e+03,-5.498192842698829736e+03,-3.288849902967542221e+03,-2.094760718891190663e+03,-5.280325683784196372e+03,-5.444523099783035832e+03,1.513869516342317365e+04,-3.891419532557719322e+03,9.408499717712402344e+00,-7.266727685928344727e-01,-1.338607788085937500e+00,6.300000000000000000e+01
8.018521569308589278e+03,-5.512980649283040293e+03,-3.326266570312890053e+03,-2.101454671985160985e+03,-5.299811382021698591e+03,-5.484050571198892612e+03,1.435043832220242075e+04,-3.937767277786857903e+03,9.408499717712402344e+00,-7.266727685928344727e-01,-1.338607788085937500e+00,6.400000000000000000e+01
7.883743058360458235e+03,-5.285693443813031081e+03,-3.246542685711855484e+03,-2.109936640126051770e+03,-5.224984462840190645e+03,-5.317193098605161140e+03,1.374883998120735669e+04,-3.783272796130564075e+03,9.408499717712402344e+00,-7.266727685928344727e-01,-1.338607788085937500e+00,6.500000000000000000e+01
7.651415725929482505e+03,-5.045310487292972539e+03,-3.080152889925278942e+03,-2.034655569717249364e+03,-5.074992630190602540e+03,-5.090550250110973138e+03,1.269463803722518969e+04,-3.566047591115723208e+03,9.408499717712402344e+00,-7.266727685928344727e-01,-1.338607788085937500e+00,6.600000000000000000e+01
7.559587345400933373e+03,-5.037318451646104222e+03,-2.979757108404560313e+03,-1.906084984659197289e+03,-4.973964550108945332e+03,-5.030995407961426281e+03,1.147961276177532636e+04,-3.510149762158718204e+03,9.408499717712402344e+00,-7.266727685928344727e-01,-1.338607788085937500e+00,6.700000000000000000e+01
7.650483823041829964e+03,-5.186089032472604231e+03,-3.008972248181605664e+03,-1.828527720552329811e+03,-4.978453825285634593e+03,-5.131786513532517347e+03,1.079561757338561256e+04,-3.615485076450320776e+03,9.408499717712402344e+00,-7.266727685928344727e-01,-1.338607788085937500e+00,6.800000000000000000e+01
7.712271520435893763e+03,-5.200017755538162419e+03,-3.053836416384419863e+03,-1.835397419295999498e+03,-4.999292754358461025e+03,-5.162684096582685925e+03,1.013845957836193884e+04,-3.657954856205828492e+03,9.408499717712402344e+00,-7.266727685928344727e-01,-1.338607788085937500e+00,6.900000000000000000e+01
7.571909893545838713e+03,-4.974713899247213703e+03,-2.978641901959156257e+03,-1.843013841005885752e+03,-4.925280942287937251e+03,-4.989350150770133041e+03,8.600069658843272919e+03,-3.500166023222603599e+03,9.408499717712402344e+00,-7.266727685928344727e-01,-1.338607788085937500e+00,7.000000000000000000e+01
7.334801724593420658e+03,-4.737367654301029688e+03,-2.812324511931419693e+03,-1.767229523368721402e+03,-4.776461356618054197e+03,-4.759651452944446646e+03,7.251507187355200585e+03,-3.281671850593516410e+03,9.408499717712402344e+00,-7.266727685928344727e-01,-1.338607788085937500e+00,7.100000000000000000e+01
7.239562098285940920e+03,-4.731719097756098563e+03,-2.708742629593020411e+03,-1.640588746581746364e+03,-4.675732451584413866e+03,-4.699768773404606691e+03,7.412648348119752882e+03,-3.225406202059788484e+03,9.408499717712402344e+00,-7.266727685928344727e-01,-1.338607788085937500e+00,7.200000000000000000e+01
7.328621897912040367e+03,-4.880341408022696669e+03,-2.734508316827172621e+03,-1.567185882004806899e+03,-4.679354056288135325e+03,-4.802656842378652073e+03,7.003336833963780009e+03,-3.330183701369637674e+03,9.408499717712402344e+00,-7.266727685928344727e-01,-1.338607788085937500e+00,7.300000000000000000e+01
7.390887586102377099e+03,-4.892796124663289447e+03,-2.777403590417465239e+03,-1.578550349325264960e+03,-4.699988045114118904e+03,-4.838650788884066060e+03,4.029889355048022480e+03,-3.374450106018377028e+03,9.408499717712402344e+00,-7.266727685928344727e-01,-1.338607788085937500e+00,7.400000000000000000e+01
7.254790198246608270e+03,-4.668121463480605598e+03,-2.702062650185411258e+03,-1.590609185167924807e+03,-4.626827321654855041e+03,-4.672258982977564301e+03,2.880831400976544501e+03,-3.222500323285381455e+03,9.408499717712402344e+00,-7.266727685928344727e-01,-1.338607788085937500e+00,7.500000000000000000e+01
7.024901585557233375e+03,-4.433819434850962352e+03,-2.536660395161586166e+03,-1.520079556458998923e+03,-4.477314838453832635e+03,-4.448156140230063102e+03,9.417871314371972403e+03,-3.009791225020048387e+03,9.408499717712402344e+00,-7.266727685928344727e-01,-1.338607788085937500e+00,7.600000000000000000e+01
6.935291506408389068e+03,-4.430507870978031860e+03,-2.432939781743259118e+03,-1.398795848020863559e+03,-4.372876073766144145e+03,-4.390525895470764226e+03,2.027469121860512314e+04,-2.954990632262240069e+03,9.446745872497558594e+00,-7.266727685928344727e-01,-1.338607788085937500e+00,7.700000000000000000e+01
7.024549520017725627e+03,-4.579248852472852377e+03,-2.457033284115730567e+03,-1.329058901528374918e+03,-4.372287219185343929e+03,-4.493290718071604715e+03,2.591053784141610595e+04,-3.059218157179485388e+03,9.446745872497558594e+00,-7.266727685928344727e-01,-1.338607788085937500e+00,7.800000000000000000e+01
7.083034033101742352e+03,-4.590263184610521421e+03,-2.499988429392539274e+03,-1.342545447698484168e+03,-4.391424548042406968e+03,-4.529477473009894311e+03,2.422516124954967381e+04,-3.105270955671900083e+03,9.446745872497558594e+00,-7.266727685928344727e-01,-1.338607788085937500e+00,7.900000000000000000e+01
6.943719743263248347e+03,-4.361962560782796572e+03,-2.428590151551597046e+03,-1.356933588304438672e+03,-4.319776290345944290e+03,-4.365975494708000042e+03,2.183471970287679869e+04,-2.957107222194521000e+03,9.446745872497558594e+00,-7.266727685928344727e-01,-1.338607788085937500e+00,8.000000000000000000e+01
6.713264235116873351e+03,-4.120952017162141601e+03,-2.267871837897626392e+03,-1.289386664422926515e+03,-4.173144636910508780e+03,-4.147447310633988309e+03,2.224093749528784974e+04,-2.747886120992122414e+03,9.446745872497558594e+00,-7.266727685928344727e-01,-1.338607788085937500e+00,8.100000000000000000e+01
6.624216433860499819e+03,-4.110118575633865476e+03,-2.166139681268313325e+03,-1.170904014713506058e+03,-4.071294294661554886e+03,-4.094991119125346358e+03,2.224559537522664323e+04,-2.696339588943932540e+03,9.446745872497558594e+00,-7.266727685928344727e-01,-1.338607788085937500e+00,8.200000000000000000e+01
6.713600745034192187e+03,-4.254653503747314971e+03,-2.190841095524222965e+03,-1.103673339504593969e+03,-4.071245677301937576e+03,-4.199535375646628381e+03,2.022854780679973192e+04,-2.803536742553415934e+03,9.446745872497558594e+00,-7.266727685928344727e-01,-1.338607788085937500e+00,8.300000000000000000e+01
6.772326362696154320e+03,-4.266928238149957906e+03,-2.235147169257819769e+03,-1.119587637306789475e+03,-4.087929464639037178e+03,-4.234906862383364569e+03,1.888805284300679341e+04,-2.850787868755972795e+03,9.446745872497558594e+00,-7.266727685928344727e-01,-1.338607788085937500e+00,8.400000000000000000e+01
6.634078711370206292e+03,-4.044352943823746955e+03,-2.164952935702246577e+03,-1.135824650378196566e+03,-4.012705241769562235e+03,-4.070695870539792850e+03,1.921607137849031278e+04,-2.703001630562207083e+03,9.446745872497558594e+00,-7.266727685928344727e-01,-1.338607788085937500e+00,8.500000000000000000e+01
6.404031355150767922e+03,-3.810226050293270873e+03,-2.005072173203668171e+03,-1.069551221141515271e+03,-3.864833594222202009e+03,-3.851391295982145493e+03,1.896248468793771099e+04,-2.496002127523667241e+03,9.446745872497558594e+00,-7.266727685928344727e-01,-1.338607788085937500e+00,8.600000000000000000e+01
6.312570050669337434e+03,-3.803866446271661516e+03,-1.905913863222210693e+03,-9.525675617739034351e+02,-3.765284839712785924e+03,-3.795707674929243694e+03,1.740304744480713998e+04,-2.447213842591228968e+03,9.446745872497558594e+00,-7.266727685928344727e-01,-1.338607788085937500e+00,8.700000000000000000e+01
6.397353245027532466e+03,-3.949743885344514638e+03,-1.934637826530692109e+03,-8.866465128097706838e+02,-3.769463156588726633e+03,-3.895186323901340074e+03,1.616486462500046582e+04,-2.554260973451201608e+03,9.446745872497558594e+00,-7.266727685928344727e-01,-1.338607788085937500e+00,8.800000000000000000e+01
6.452407844666552592e+03,-3.962560828375827896e+03,-1.981614907915281037e+03,-9.026991193486246630e+02,-3.790843303244714662e+03,-3.927792405349561704e+03,1.572001529593043961e+04,-2.600096463858643347e+03,9.446745872497558594e+00,-7.266727685928344727e-01,-1.338607788085937500e+00,8.900000000000000000e+01
6.312624131816507543e+03,-3.741309406376702100e+03,-1.913495696082401992e+03,-9.193916290039242085e+02,-3.720371628000681994e+03,-3.765076510591423357e+03,1.518281574237302084e+04,-2.453971914828956415e+03,9.446745872497558594e+00,-7.266727685928344727e-01,-1.338607788085937500e+00,9.000000000000000000e+01
6.080838922680385622e+03,-3.508483752351322437e+03,-1.758747491866068685e+03,-8.562123873730952255e+02,-3.576070710608701120e+03,-3.548308345019893750e+03,1.447954478787048902e+04,-2.250159049123188652e+03,9.446745872497558594e+00,-7.266727685928344727e-01,-1.338607788085937500e+00,9.100000000000000000e+01
5.985701414204068897e+03,-3.503108310030990197e+03,-1.666944727703140416e+03,-7.435120700535162541e+02,-3.477212410188608828e+03,-3.492138060851564660e+03,1.378134443110432767e+04,-2.200751833187795000e+03,9.446745872497558594e+00,-7.266727685928344727e-01,-1.338607788085937500e+00,9.200000000000000000e+01
6.067040905189537625e+03,-3.651241310517202237e+03,-1.700450599586764383e+03,-6.797802477702525721e+02,-3.479669230446920665e+03,-3.588217092487382615e+03,1.258801744876651901e+04,-2.303682198851720386e+03,9.446745872497558594e+00,-7.266727685928344727e-01,-1.338607788085937500e+00,9.300000000000000000e+01
6.121937056681937975e+03,-3.668502477790110333e+03,-1.748999109303604200e+03,-6.969493376661303046e+02,-3.499236100280188111e+03,-3.617885363044247242e+03,1.128874970163693979e+04,-2.347009935733054135e+03,9.446745872497558594e+00,-7.266727685928344727e-01,-1.338607788085937500e+00,9.400000000000000000e+01
5.984849407185174641e+03,-3.452694693820311386e+03,-1.682943940392171498e+03,-7.177899086931747661e+02,-3.427908378770162471e+03,-3.455347465500693943e+03,1.104880297996585614e+04,-2.201258763193085997e+03,9.446745872497558594e+00,-7.266727685928344727e-01,-1.338607788085937500e+00,9.500000000000000000e+01
5.755862282486352342e+03,-3.224315533114066966e+03,-1.531012725282236261e+03,-6.620502717488761846e+02,-3.283157014125523347e+03,-3.242139729811087818e+03,1.111978154057092252e+04,-1.997965981020675827e+03,9.446745872497558594e+00,-7.266727685928344727e-01,-1.338607788085937500e+00,9.600000000000000000e+01
5.662539323700875684e+03,-3.220496293325308670e+03,-1.439356955088535415e+03,-5.560221738663703945e+02,-3.184661536906245601e+03,-3.191545418930916640e+03,9.723337794509672676e+03,-1.949025885668942010e+03,9.446745872497558594e+00,-7.266727685928344727e-01,-1.338607788085937500e+00,9.700000000000000000e+01
5.745476158282121105e+03,-3.366381684666557703e+03,-1.470794136293911833e+03,-4.955877612231761304e+02,-3.189702748181036441e+03,-3.293168247608806269e+03,7.844152509129004102e+03,-2.054554243065872924e+03,9.446745872497558594e+00,-7.266727685928344727e-01,-1.338607788085937500e+00,9.800000000000000000e+01
5.801754397777208396e+03,-3.379495091533229242e+03,-1.519783937696793146e+03,-5.131611733472154810e+02,-3.214041839698329568e+03,-3.326798611067432830e+03,7.713760962682681566e+03,-2.102396040663528765e+03,9.446745872497558594e+00,-7.266727685928344727e-01,-1.338607788085937500e+00,9.900000000000000000e+01
5.665110353000541181e+03,-3.161434120007680121e+03,-1.458131325543678031e+03,-5.322040432739267999e+02,-3.148156626723039153e+03,-3.166732461178196445e+03,7.991657796386278278e+03,-1.961312090595583413e+03,9.446745872497558594e+00,-7.266727685928344727e-01,-1.338607788085937500e+00,1.000000000000000000e+02
5.436163618110722382e+03,-2.934209768100772180e+03,-1.311054144367020854e+03,-4.733290373029421971e+02,-3.008156169391686490e+03,-2.955691630406085551e+03,6.171389326492819237e+03,-1.762736485516756602e+03,9.446745872497558594e+00,-7.266727685928344727e-01,-1.338607788085937500e+00,1.010000000000000000e+02
5.343599378164470181e+03,-2.933188814434159212e+03,-1.221823254252581137e+03,-3.656162835316008568e+02,-2.912010006702346800e+03,-2.907603055487106758e+03,5.040167393953672217e+03,-1.718321246800482641e+03,9.446745872497558594e+00,-7.266727685928344727e-01,-1.338607788085937500e+00,1.020000000000000000e+02
5.427770173489635454e+03,-3.082169138277191905e+03,-1.253025612397590521e+03,-3.076719715512253970e+02,-2.915057775380182193e+03,-3.012117611933074841e+03,9.655195516493666219e+03,-1.826257414718349537e+03,9.446745872497558594e+00,-7.266727685928344727e-01,-1.338607788085937500e+00,1.030000000000000000e+02
5.485441298798649768e+03,-3.099142792095515688e+03,-1.299360678827344600e+03,-3.313946234896375245e+02,-2.934601993457619301e+03,-3.049632041753886369e+03,1.816200161795671011e+04,-1.874742050051646856e+03,9.484992027282714844e+00,-8.414105772972106934e-01,-1.376853704452514648e+00,1.040000000000000000e+02
5.351894592218082835e+03,-2.885290982388283737e+03,-1.234242341264521201e+03,-3.576097335707754610e+02,-2.866857325242089701e+03,-2.894976189602556587e+03,2.318279471369519888e+04,-1.736508869335029885e+03,9.484992027282714844e+00,-8.414105772972106934e-01,-1.376853704452514648e+00,1.050000000000000000e+02
5.128384588795664058e+03,-2.660919665505172361e+03,-1.087002086931253871e+03,-3.053303110637853024e+02,-2.731125595937871367e+03,-2.689207049768157049e+03,2.239604609155822982e+04,-1.544262672095467678e+03,9.484992027282714844e+00,-8.414105772972106934e-01,-1.376853704452514648e+00,1.060000000000000000e+02
5.040009877025398964e+03,-2.661471898401936869e+03,-1.003266171565436707e+03,-2.032322630172884601e+02,-2.641599346243941000e+03,-2.642635383030437424e+03,2.034288881857832166e+04,-1.504971644290731547e+03,9.484992027282714844e+00,-8.414105772972106934e-01,-1.376853704452514648e+00,1.070000000000000000e+02
5.123238192521702331e+03,-2.812919050488933863e+03,-1.042871481426619539e+03,-1.490261301927230306e+02,-2.648617579534326069e+03,-2.743394899619668649e+03,2.003839363353892986e+04,-1.613065652246018544e+03,9.484992027282714844e+00,-8.414105772972106934e-01,-1.376853704452514648e+00,1.080000000000000000e+02
5.176941215490693139e+03,-2.834300864009022916e+03,-1.096612580280684597e+03,-1.737380126246171130e+02,-2.669566290747380663e+03,-2.775739825458100313e+03,1.984704308546061657e+04,-1.659633714009994492e+03,9.484992027282714844e+00,-8.414105772972106934e-01,-1.376853704452514648e+00,1.090000000000000000e+02
5.042109847350599011e+03,-2.625222642765411820e+03,-1.036820626107335556e+03,-1.993290540012276324e+02,-2.602828997811171575e+03,-2.620885400636200302e+03,1.878089291977188986e+04,-1.521803378637338028e+03,9.484992027282714844e+00,-8.414105772972106934e-01,-1.376853704452514648e+00,1.100000000000000000e+02
4.821451335322264640e+03,-2.403202177334228509e+03,-8.926518862463180994e+02,-1.474886746428956030e+02,-2.467579027858555492e+03,-2.422069839932446030e+03,1.825726388714877976e+04,-1.331784140893567383e+03,9.484992027282714844e+00,-8.414105772972106934e-01,-1.376853704452514648e+00,1.110000000000000000e+02
4.736971244913080227e+03,-2.401648515285155099e+03,-8.094413076937617006e+02,-4.797690203016372834e+01,-2.378546744498454700e+03,-2.385425278419411370e+03,1.836358117667464103e+04,-1.294262294476254283e+03,9.484992027282714844e+00,-8.414105772972106934e-01,-1.376853704452514648e+00,1.120000000000000000e+02
4.824004885052459031e+03,-2.547665425135357509e+03,-8.496434205740051766e+02,3.127847912548531895e+00,-2.389581880990283935e+03,-2.493520640268820443e+03,1.758968508245765770e+04,-1.404594027760060271e+03,9.484992027282714844e+00,-8.414105772972106934e-01,-1.376853704452514648e+00,1.130000000000000000e+02
4.883020668076593211e+03,-2.565694969146727090e+03,-9.082618466084813917e+02,-2.381921829976181471e+01,-2.418808163413629700e+03,-2.528275479625732260e+03,1.615699390240996399e+04,-1.454806397579563964e+03,9.484992027282714844e+00,-8.414105772972106934e-01,-1.376853704452514648e+00,1.140000000000000000e+02
4.754038351366743882e+03,-2.360757929192231131e+03,-8.569530295824843051e+02,-5.191053423880748596e+01,-2.359110772370403538e+03,-2.371052597493750000e+03,1.563527618538102615e+04,-1.318872800028170786e+03,9.484992027282714844e+00,-8.414105772972106934e-01,-1.376853704452514648e+00,1.150000000000000000e+02
4.536312975899714729e+03,-2.149442204715194293e+03,-7.190921813891945931e+02,-4.023613748266143375e+00,-2.225150287128943546e+03,-2.166361001309332096e+03,1.586086796065641829e+04,-1.126375446184721113e+03,9.484992027282714844e+00,-8.414105772972106934e-01,-1.376853704452514648e+00,1.160000000000000000e+02
4.451356028867363420e+03,-2.158730646082972726e+03,-6.366663538544198673e+02,9.143979733232663420e+01,-2.134364418251387178e+03,-2.123960397565546373e+03,1.539333767417461058e+04,-1.085400990424946940e+03,9.484992027282714844e+00,-8.414105772972106934e-01,-1.376853704452514648e+00,1.170000000000000000e+02
4.537111237150929810e+03,-2.311429628912206681e+03,-6.742438045137314475e+02,1.399839439481493173e+02,-2.144924434531067618e+03,-2.231229745100013588e+03,1.418359765719569623e+04,-1.196413240852709350e+03,9.484992027282714844e+00,-8.414105772972106934e-01,-1.376853704452514648e+00,1.180000000000000000e+02
4.595211903738058027e+03,-2.333118297630734560e+03,-7.297062559274945670e+02,1.110335762690119736e+02,-2.174224303138859796e+03,-2.271283394623179902e+03,1.331222097904558177e+04,-1.251311329194593782e+03,9.484992027282714844e+00,-8.414105772972106934e-01,-1.376853704452514648e+00,1.190000000000000000e+02
4.465676948631815321e+03,-2.130878093875146078e+03,-6.758031385046278956e+02,8.041261134263550048e+01,-2.113579190281936462e+03,-2.121906446908216367e+03,1.299073252128596505e+04,-1.120714841392294147e+03,9.484992027282714844e+00,-8.414105772972106934e-01,-1.376853704452514648e+00,1.200000000000000000e+02
4.249563734339208168e+03,-1.920608343005362713e+03,-5.371096406087308424e+02,1.265328405290329101e+02,-1.980525514629763620e+03,-1.923757901530466370e+03,1.267442288666120658e+04,-9.333643776979661197e+02,9.484992027282714844e+00,-8.414105772972106934e-01,-1.376853704452514648e+00,1.210000000000000000e+02
4.169318122222568491e+03,-1.928117004796106812e+03,-4.562700636448125806e+02,2.218481162214811775e+02,-1.894565561357498609e+03,-1.885616827720668425e+03,1.219237603396897248e+04,-8.980981036351013245e+02,9.484992027282714844e+00,-8.414105772972106934e-01,-1.376853704452514648e+00,1.220000000000000000e+02
4.259650120502935351e+03,-2.077493347870243269e+03,-4.959916888800435117e+02,2.700107547468032863e+02,-1.909811996869917493e+03,-1.995489846345705701e+03,1.149763340021524709e+04,-1.014195347670301089e+03,9.484992027282714844e+00,-8.414105772972106934e-01,-1.376853704452514648e+00,1.230000000000000000e+02
4.319449647252990871e+03,-2.096878415616957227e+03,-5.527029826541156581e+02,2.394005498822480149e+02,-1.940133479052859002e+03,-2.037275887801742556e+03,1.046005573749237738e+04,-1.072534471232776923e+03,9.484992027282714844e+00,-8.414105772972106934e-01,-1.376853704452514648e+00,1.240000000000000000e+02
4.191342834966240844e+03,-1.894267282050966060e+03,-5.011414638734377149e+02,2.077140614790623658e+02,-1.880671854444802193e+03,-1.889669158569052343e+03,9.637580776138504007e+03,-9.459191824956360506e+02,9.484992027282714844e+00,-8.414105772972106934e-01,-1.376853704452514648e+00,1.250000000000000000e+02
3.979381956945149796e+03,-1.684436357289853731e+03,-3.674710768143540918e+02,2.539472505477660889e+02,-1.753459397442728914e+03,-1.693844055194867451e+03,9.674471697718621726e+03,-7.650360101889000362e+02,9.484992027282714844e+00,-8.414105772972106934e-01,-1.376853704452514648e+00,1.260000000000000000e+02
3.903662132602713427e+03,-1.692500010463256331e+03,-2.917695104469094076e+02,3.480882029675194644e+02,-1.675075068007976824e+03,-1.658313706983029988e+03,9.669885224573943560e+03,-7.361849746828738716e+02,9.484992027282714844e+00,-8.414105772972106934e-01,-1.376853704452514648e+00,1.270000000000000000e+02
3.995918476849139552e+03,-1.843842392719325744e+03,-3.343351170450678183e+02,3.934464236082421849e+02,-1.694838935044824211e+03,-1.770945810546539633e+03,8.380295294096908037e+03,-8.550908146749170555e+02,9.484992027282714844e+00,-8.414105772972106934e-01,-1.376853704452514648e+00,1.280000000000000000e+02
4.057287596270595714e+03,-1.867825738390391052e+03,-3.938056050829218293e+02,3.615923145247434149e+02,-1.728034875376937634e+03,-1.815984651545448287e+03,6.917068205822983145e+03,-9.139185577168536838e+02,9.484992027282714844e+00,-8.414105772972106934e-01,-1.376853704452514648e+00,1.290000000000000000e+02
3.933271719117023167e+03,-1.671190151630557921e+03,-3.476683638746326324e+02,3.303567496812338504e+02,-1.673045932738341435e+03,-1.672023654922080823e+03,7.060087846717859065e+03,-7.895143292380853381e+02,9.484992027282714844e+00,-8.414105772972106934e-01,-1.376853704452514648e+00,1.300000000000000000e+02
3.725740815438281970e+03,-1.466801127214615917e+03,-2.204550941595880431e+02,3.740158188149052876e+02,-1.550023758497449307e+03,-1.479391746640673318e+03,7.448285571407392126e+03,-6.125527743744423788e+02,9.484992027282714844e+00,-8.414105772972106934e-01,-1.376853704452514648e+00,1.310000000000000000e+02
3.651959670954036483e+03,-1.479920479598870315e+03,-1.493484624147404247e+02,4.608396450256077514e+02,-1.472518684124202082e+03,-1.445694314053451308e+03,5.791949639596168709e+03,-5.853622443415670205e+02,9.484992027282714844e+00,-8.414105772972106934e-01,-1.376853704452514648e+00,1.320000000000000000e+02
3.745520367314697069e+03,-1.636380066586581052e+03,-1.949286857136521576e+02,4.987158362799254974e+02,-1.491451148550872858e+03,-1.558473671348514927e+03,4.324662397338441224e+03,-7.024572701278866589e+02,9.484992027282714844e+00,-8.414105772972106934e-01,-1.376853704452514648e+00,1.330000000000000000e+02
3.809937744382135861e+03,-1.664080992792550660e+03,-2.569926428279250104e+02,4.626392701100394333e+02,-1.524511939480866204e+03,-1.602984996050513018e+03,7.438833988806472917e+03,-7.591345800610697552e+02,9.484992027282714844e+00,-8.414105772972106934e-01,-1.376853704452514648e+00,1.340000000000000000e+02
3.688696372447070644e+03,-1.469107539399215966e+03,-2.117494966918402497e+02,4.283804884218625375e+02,-1.468464903523400608e+03,-1.459950372844421054e+03,1.404168955793567511e+04,-6.338437532429734347e+02,9.484992027282714844e+00,-8.031646609306335449e-01,-1.300361871719360352e+00,1.350000000000000000e+02
3.480774886754850741e+03,-1.266317203449629233e+03,-8.262030429325386649e+01,4.683814333719146816e+02,-1.341370145583050544e+03,-1.270397844691002774e+03,1.810853064221351087e+04,-4.551106736312767680e+02,9.484992027282714844e+00,-8.031646609306335449e-01,-1.300361871719360352e+00,1.360000000000000000e+02
3.404168343592833480e+03,-1.281479090591820750e+03,-8.955118971149204299e+00,5.529893265252321726e+02,-1.258436085096707302e+03,-1.239740795299787351e+03,1.722727444753298550e+04,-4.245332872459721330e+02,9.484992027282714844e+00,-8.031646609306335449e-01,-1.300361871719360352e+00,1.370000000000000000e+02
3.495028501933607913e+03,-1.437656023939174702e+03,-5.415615889101991343e+01,5.912695805543407914e+02,-1.273804500153928075e+03,-1.353710167142188311e+03,1.496045125520768488e+04,-5.396959946664474046e+02,9.484992027282714844e+00,-8.031646609306335449e-01,-1.300361871719360352e+00,1.380000000000000000e+02
3.558700235609292577e+03,-1.462559640981104621e+03,-1.179470950684444688e+02,5.555921781413217104e+02,-1.307120639643074355e+03,-1.399265971840914517e+03,1.438742955804683152e+04,-5.979702758678395185e+02,9.484992027282714844e+00,-8.031646609306335449e-01,-1.300361871719360352e+00,1.390000000000000000e+02
3.439905934540427552e+03,-1.267090198029221938e+03,-7.513570656358842825e+01,5.199328843248022167e+02,-1.255975858796643479e+03,-1.259029670814548808e+03,1.459632106858882980e+04,-4.759206042100040577e+02,9.484992027282714844e+00,-8.031646609306335449e-01,-1.300361871719360352e+00,1.400000000000000000e+02
3.237093822580458436e+03,-1.068639921946183222e+03,5.077259774379672308e+01,5.589350582715051132e+02,-1.137356668839573103e+03,-1.071561972886984222e+03,1.410339735557317545e+04,-2.997337821784112748e+02,9.484992027282714844e+00,-8.031646609306335449e-01,-1.300361871719360352e+00,1.410000000000000000e+02
3.164971612190895030e+03,-1.089263723585164371e+03,1.202277936618720560e+02,6.450599044634327583e+02,-1.062782896539301873e+03,-1.038833106621755633e+03,1.328517626831447342e+04,-2.710869189605373322e+02,9.484992027282714844e+00,-8.031646609306335449e-01,-1.300361871719360352e+00,1.420000000000000000e+02
3.257493343575210019e+03,-1.249058392148336679e+03,7.184533933797865757e+01,6.851773349429458904e+02,-1.083191875444798825e+03,-1.149028702489485568e+03,1.267281958883453262e+04,-3.884942508747380998e+02,9.484992027282714844e+00,-8.031646609306335449e-01,-1.300361871719360352e+00,1.430000000000000000e+02
3.321983632154464431e+03,-1.277934871875298995e+03,8.082158076003906899e+00,6.476737250781916373e+02,-1.118341918982349853e+03,-1.195405104795301213e+03,1.194787584166557644e+04,-4.497180667809079750e+02,9.484992027282714844e+00,-8.031646609306335449e-01,-1.300361871719360352e+00,1.440000000000000000e+02
3.205324950616630304e+03,-1.087742448246037839e+03,5.303235839467106416e+01,6.062248188779121847e+02,-1.067465462566963652e+03,-1.061611044516603215e+03,1.114614197637938923e+04,-3.316138153208803487e+02,9.484992027282714844e+00,-8.031646609306335449e-01,-1.300361871719360352e+00,1.450000000000000000e+02
3.004388184031133278e+03,-8.914559780388372019e+02,1.800676437819038256e+02,6.393730469307192834e+02,-9.487130882549445232e+02,-8.804805271594686928e+02,1.081509934249797516e+04,-1.600324358259276778e+02,9.484992027282714844e+00,-8.031646609306335449e-01,-1.300361871719360352e+00,1.460000000000000000e+02
2.931914288483068958e+03,-9.079253697009316966e+02,2.484488038329827759e+02,7.226758110454502457e+02,-8.752595360545237781e+02,-8.501331398339875705e+02,1.074274610937622856e+04,-1.353235878423165559e+02,9.484992027282714844e+00,-8.031646609306335449e-01,-1.300361871719360352e+00,1.470000000000000000e+02
3.023064869361081946e+03,-1.060408031937935903e+03,1.976667844599605814e+02,7.623824769053717318e+02,-8.997849689438526184e+02,-9.611592941418075497e+02,1.000635808779024592e+04,-2.554962509977431182e+02,9.484992027282714844e+00,-8.031646609306335449e-01,-1.300361871719360352e+00,1.480000000000000000e+02
3.086951892277551451e+03,-1.083483774966083729e+03,1.301932554947907192e+02,7.254119291911829350e+02,-9.413560291591861642e+02,-1.009553379007666535e+03,8.617088241064910108e+03,-3.194931694193892326e+02,9.484992027282714844e+00,-8.031646609306335449e-01,-1.300361871719360352e+00,1.490000000000000000e+02
2.970355630451216712e+03,-8.899141082406872556e+02,1.693396679194293029e+02,6.852428214527026284e+02,-8.967258476897577566e+02,-8.779357130342614255e+02,7.894276296002786694e+03,-2.049460972874485378e+02,9.484992027282714844e+00,-8.031646609306335449e-01,-1.300361871719360352e+00,1.500000000000000000e+02
2.769870279026923527e+03,-6.916308977464886993e+02,2.896149173959074687e+02,7.188235049938557495e+02,-7.829625189486146155e+02,-6.987240267446577491e+02,8.323888999036906171e+03,-3.675441916269483045e+01,9.484992027282714844e+00,-8.031646609306335449e-01,-1.300361871719360352e+00,1.510000000000000000e+02
2.698197912401516078e+03,-7.072630327823444532e+02,3.531263486456355167e+02,7.985973921820259420e+02,-7.134441582158133315e+02,-6.723854121646222666e+02,8.213785559595153245e+03,-1.404625098455289844e+01,9.484992027282714844e+00,-8.031646609306335449e-01,-1.300361871719360352e+00,1.520000000000000000e+02
2.789077554525385494e+03,-8.602047412071242434e+02,3.007828782176193272e+02,8.317331309775508998e+02,-7.400254592746791786e+02,-7.894353390786163800e+02,6.355752813458291712e+03,-1.346465313924054499e+02,9.484992027282714844e+00,-8.031646609306335449e-01,-1.300361871719360352e+00,1.530000000000000000e+02
2.850527443670578577e+03,-8.852442980605374032e+02,2.339785453684771710e+02,7.907224387921351081e+02,-7.807301588997434010e+02,-8.420816118668499257e+02,5.046019214073334297e+03,-1.979730036521759757e+02,9.484992027282714844e+00,-8.031646609306335449e-01,-1.300361871719360352e+00,1.540000000000000000e+02
2.731108220086804067e+03,-6.954234277494688286e+02,2.740988299607324734e+02,7.512238540601229033e+02,-7.335017753520069164e+02,-7.118258110897095321e+02,7.365806406653420709e+03,-8.219995988328901149e+01,9.484992027282714844e+00,-8.031646609306335449e-01,-1.300361871719360352e+00,1.550000000000000000e+02
2.529683996130157539e+03,-5.017076254034573140e+02,3.943200000211636507e+02,7.858636931323617318e+02,-6.179332565010245162e+02,-5.342042267045926565e+02,1.198540696065315569e+04,8.741459842064250552e+01,9.446745872497558594e+00,-8.031646609306335449e-01,-1.338607788085937500e+00,1.560000000000000000e+02
2.458775762596955246e+03,-5.215194579067392624e+02,4.564522602740025832e+02,8.637244966528396617e+02,-5.484407555662278355e+02,-5.106397241990607654e+02,1.436158341633514647e+04,1.115055405568655260e+02,9.446745872497558594e+00,-8.031646609306335449e-01,-1.338607788085937500e+00,1.570000000000000000e+02
2.551552668901227662e+03,-6.797864133319972098e+02,4.017820485612282937e+02,8.937529218643212516e+02,-5.763412597125038701e+02,-6.289206548501842917e+02,1.309781157722039825e+04,-8.421039422921239748e+00,9.446745872497558594e+00,-8.031646609306335449e-01,-1.338607788085937500e+00,1.580000000000000000e+02
2.616867698916546942e+03,-7.134233140454916793e+02,3.316151613756319421e+02,8.500025296764952145e+02,-6.195628663067318485e+02,-6.807154987918602274e+02,1.123548065798477728e+04,-7.273394881059084582e+01,9.446745872497558594e+00,-8.031646609306335449e-01,-1.338607788085937500e+00,1.590000000000000000e+02
2.502936118793060814e+03,-5.330558347748437882e+02,3.669688111036284681e+02,8.068151124966425414e+02,-5.764858632209438838e+02,-5.501482044520080308e+02,1.104770386767382479e+04,4.036327765849819116e+01,9.446745872497558594e+00,-8.031646609306335449e-01,-1.338607788085937500e+00,1.600000000000000000e+02
2.306306519720536016e+03,-3.451076545825189896e+02,4.823554148729854205e+02,8.370092223603960520e+02,-4.658800290873764425e+02,-3.733659605464090419e+02,1.140772924017235528e+04,2.064845034388690692e+02,9.446745872497558594e+00,-8.031646609306335449e-01,-1.338607788085937500e+00,1.610000000000000000e+02
2.238636979415059614e+03,-3.675743818271007513e+02,5.422002976722005769e+02,9.119820321457573300e+02,-3.999919547081453857e+02,-3.501703826911834767e+02,1.078532131289383142e+04,2.268289605958707398e+02,9.446745872497558594e+00,-8.031646609306335449e-01,-1.338607788085937500e+00,1.620000000000000000e+02
2.334455909967808111e+03,-5.300657195583316934e+02,4.878883063103885434e+02,9.404926069079056106e+02,-4.290864699173157533e+02,-4.686658940278566661e+02,9.575590009281409948e+03,1.035068753631830987e+02,9.446745872497558594e+00,-8.031646609306335449e-01,-1.338607788085937500e+00,1.630000000000000000e+02
2.403174523590056197e+03,-5.707105232657454508e+02,4.175408284104705672e+02,8.943187878602711862e+02,-4.725957858443989608e+02,-5.218948364040816159e+02,8.774161145858683085e+03,3.733875698953397659e+01,9.446745872497558594e+00,-8.031646609306335449e-01,-1.338607788085937500e+00,1.640000000000000000e+02
2.292383452195099380e+03,-3.967453739708585090e+02,4.501528311331512668e+02,8.481070882927278944e+02,-4.308997678695754985e+02,-3.930494331533573131e+02,8.474489904485308216e+03,1.498914038687253196e+02,9.446745872497558594e+00,-8.031646609306335449e-01,-1.338607788085937500e+00,1.650000000000000000e+02
2.098860364041574940e+03,-2.117568354980176082e+02,5.618207023542781826e+02,8.768133009617276912e+02,-3.224281578574418745e+02,-2.170652911090619455e+02,8.236676762888499070e+03,3.145141770642467236e+02,9.446745872497558594e+00,-8.031646609306335449e-01,-1.338607788085937500e+00,1.660000000000000000e+02
2.034807859377695422e+03,-2.331994850997557478e+02,6.192186421097439961e+02,9.515312141625672666e+02,-2.574108357312275075e+02,-1.954618759055720147e+02,7.731261986186358627e+03,3.318475010482679863e+02,9.446745872497558594e+00,-8.031646609306335449e-01,-1.338607788085937500e+00,1.670000000000000000e+02
2.134448303253853737e+03,-3.913488461890024155e+02,5.642750500803385876e+02,9.790775791034075155e+02,-2.856942369555317782e+02,-3.188088398444097038e+02,6.914470079756332780e+03,2.063296243818385847e+02,9.446745872497558594e+00,-8.031646609306335449e-01,-1.338607788085937500e+00,1.680000000000000000e+02
2.207470101325347059e+03,-4.274743164672449893e+02,4.950867805676753051e+02,9.312618604162562406e+02,-3.287965885936719133e+02,-3.801112253586816223e+02,6.040387366703886073e+03,1.391622772213886492e+02,9.446745872497558594e+00,-8.031646609306335449e-01,-1.338607788085937500e+00,1.690000000000000000e+02
2.102480541990164056e+03,-2.541314117124084078e+02,5.304318034516209082e+02,8.841007761527553157e+02,-2.888649216006460847e+02,-2.604831556377039306e+02,5.445529316574014956e+03,2.490579100739851128e+02,9.446745872497558594e+00,-8.031646609306335449e-01,-1.338607788085937500e+00,1.700000000000000000e+02
1.915188959934766899e+03,-7.696416680657739562e+01,6.445580327177021900e+02,9.125150537679619447e+02,-1.836803008701854196e+02,-9.209324927810030204e+01,5.215039419077753337e+03,4.091096492859828686e+02,9.446745872497558594e+00,-8.031646609306335449e-01,-1.338607788085937500e+00,1.710000000000000000e+02
1.854611724966918700e+03,-1.087882881695227297e+02,7.014943190698086255e+02,9.869008840893438901e+02,-1.219664428111373127e+02,-7.392086467645185621e+01,5.011263595261360024e+03,4.235265074369035574e+02,9.446745872497558594e+00,-8.031646609306335449e-01,-1.338607788085937500e+00,1.720000000000000000e+02
1.953880216664795626e+03,-2.731921313563875628e+02,6.428594863521693696e+02,1.014989114412835079e+03,-1.533973014870825864e+02,-1.965522396602036679e+02,4.265383065827905739e+03,2.971705397343034747e+02,9.446745872497558594e+00,-8.031646609306335449e-01,-1.338607788085937500e+00,1.730000000000000000e+02
2.025410883544920580e+03,-3.095003142988798572e+02,5.693914794048096155e+02,9.700451348587757820e+02,-2.001408464358710262e+02,-2.563089528334753595e+02,3.008992649921963675e+03,2.269546878974160791e+02,9.446745872497558594e+00,-8.031646609306335449e-01,-1.338607788085937500e+00,1.740000000000000000e+02
1.920943313971200951e+03,-1.334649660667828357e+02,6.023233333892585506e+02,9.270928991749306078e+02,-1.642624545651756307e+02,-1.373186281314588086e+02,2.301715513675764669e+03,3.302441247636802473e+02,9.446745872497558594e+00,-8.031646609306335449e-01,-1.338607788085937500e+00,1.750000000000000000e+02
1.736489237341965236e+03,4.593049697730612024e+01,7.156141310663861077e+02,9.580042261001681254e+02,-6.287203524981487135e+01,2.858080144391897193e+01,2.648483630533573887e+03,4.843725657090549248e+02,9.446745872497558594e+00,-8.031646609306335449e-01,-1.338607788085937500e+00,1.760000000000000000e+02
1.679248830157574957e+03,1.531335537805489366e+01,7.717123463986172283e+02,1.032006286921210631e+03,-4.313382409516179905e+00,4.435383758636498897e+01,2.565830676933193899e+03,4.966134019536821143e+02,9.446745872497558594e+00,-8.031646609306335449e-01,-1.338607788085937500e+00,1.770000000000000000e+02
1.781170791225465109e+03,-1.488843075457748455e+02,7.123954573792225347e+02,1.058841965686516232e+03,-3.809001399305816449e+01,-7.993711518693407925e+01,9.755074327216316306e+02,3.703962328332499965e+02,9.446745872497558594e+00,-8.031646609306335449e-01,-1.338607788085937500e+00,1.780000000000000000e+02
1.855475893108370656e+03,-1.874615393127619427e+02,6.396587623844934569e+02,1.013220775660111940e+03,-8.631758434524817858e+01,-1.414742544256891961e+02,2.263856868038892571e+02,3.009883698805133463e+02,9.446745872497558594e+00,-8.031646609306335449e-01,-1.338607788085937500e+00,1.790000000000000000e+02
1.755048386884488536e+03,-1.660092222832781772e+01,6.734426752204244622e+02,9.687850065900038317e+02,-5.170255492861224411e+01,-2.522088587620237377e+01,3.273125179095441126e+03,4.059304941899995356e+02,9.446745872497558594e+00,-8.031646609306335449e-01,-1.338607788085937500e+00,1.800000000000000000e+02
1.574843518325447803e+03,1.577137419064069945e+02,7.842987716618408740e+02,9.966630884269479793e+02,4.753717918443771850e+01,1.377254578595789098e+02,8.424795410906077450e+03,5.620378145967979435e+02,9.446745872497558594e+00,-7.649186849594116211e-01,-1.376853704452514648e+00,1.810000000000000000e+02
1.519554958024458756e+03,1.251195940533184512e+02,8.344581874475879886e+02,1.068365076648076865e+03,1.026232276256400837e+02,1.524906105320155802e+02,1.101578502149401720e+04,5.753424689053558723e+02,9.446745872497558594e+00,-7.649186849594116211e-01,-1.376853704452514648e+00,1.820000000000000000e+02
1.620741518821130740e+03,-3.880594488849237678e+01,7.694570221128610683e+02,1.095150694679456137e+03,6.441328940888479337e+01,2.983447685717692366e+01,1.003853502309726900e+04,4.493580829723482566e+02,9.446745872497558594e+00,-7.649186849594116211e-01,-1.376853704452514648e+00,1.830000000000000000e+02
1.694161685693786239e+03,-7.708008578971066527e+01,6.929044916468469637e+02,1.049629646087286346e+03,1.126090904523289282e+01,-3.019746033859109957e+01,8.771321428302298955e+03,3.796141614352663964e+02,9.446745872497558594e+00,-7.649186849594116211e-01,-1.376853704452514648e+00,1.840000000000000000e+02
1.594952800007738915e+03,9.401392013882696119e+01,7.222883569906521188e+02,1.003304338042567906e+03,4.141317603496963784e+01,8.429661675954730526e+01,9.049056500887216316e+03,4.824877428196282381e+02,9.446745872497558594e+00,-7.649186849594116211e-01,-1.376853704452514648e+00,1.850000000000000000e+02
1.417923135452660972e+03,2.682024223043681559e+02,8.277563073145834096e+02,1.027975604364297396e+03,1.383821453628852396e+02,2.428709148352659213e+02,9.314811220624511407e+03,6.343139070500174057e+02,9.446745872497558594e+00,-7.649186849594116211e-01,-1.376853704452514648e+00,1.860000000000000000e+02
1.366572780524561495e+03,2.323138401146429715e+02,8.753158838494259726e+02,1.095899792177072413e+03,1.941546768425614573e+02,2.537906372182624182e+02,8.493142131213442553e+03,6.429519323192694173e+02,9.446745872497558594e+00,-7.649186849594116211e-01,-1.376853704452514648e+00,1.870000000000000000e+02
1.471759380677061017e+03,6.011252424841813990e+01,8.120211338958629312e+02,1.117600544492247536e+03,1.579962604846041359e+02,1.291168582608961515e+02,7.688648856154841269e+03,5.136102320461191084e+02,9.446745872497558594e+00,-7.649186849594116211e-01,-1.376853704452514648e+00,1.880000000000000000e+02
1.548841445186844794e+03,1.068248712618742502e+01,7.380566005580963065e+02,1.066364429222740910e+03,1.061385781157446218e+02,6.762752753549693807e+01,7.640766367309628549e+03,4.415586931858720163e+02,9.446745872497558594e+00,-7.649186849594116211e-01,-1.376853704452514648e+00,1.890000000000000000e+02
1.452468574421432095e+03,1.713383816165082862e+02,7.685693179287318344e+02,1.016156258512996828e+03,1.363769943936385971e+02,1.798063722173988026e+02,7.634800244322488652e+03,5.426787557124816885e+02,9.446745872497558594e+00,-7.649186849594116211e-01,-1.376853704452514648e+00,1.900000000000000000e+02
1.277227730879363662e+03,3.390737771382327992e+02,8.754490798245506085e+02,1.039247154880482412e+03,2.325700804593720932e+02,3.347849692009876890e+02,7.218895893097245789e+03,6.936286545980601659e+02,9.446745872497558594e+00,-7.649186849594116211e-01,-1.376853704452514648e+00,1.910000000000000000e+02
1.227132609278601194e+03,3.037733668872169801e+02,9.255578070956798911e+02,1.105772460469756879e+03,2.865113322872398385e+02,3.409571320741210911e+02,6.749242746148769584e+03,7.018910400093391218e+02,9.446745872497558594e+00,-7.649186849594116211e-01,-1.376853704452514648e+00,1.920000000000000000e+02
1.334158178157615112e+03,1.388251835074356677e+02,8.631914904653945086e+02,1.125214369653407630e+03,2.476668655645485160e+02,2.111894479371994748e+02,6.348789800043648029e+03,5.712540181142194342e+02,9.446745872497558594e+00,-7.649186849594116211e-01,-1.376853704452514648e+00,1.930000000000000000e+02
1.414223844797552374e+03,9.730389222442681785e+01,7.863389289950523562e+02,1.072003532195739353e+03,1.931380210340680605e+02,1.460228459699137602e+02,5.932771240695627966e+03,4.962950968374020704e+02,9.446745872497558594e+00,-7.649186849594116211e-01,-1.376853704452514648e+00,1.940000000000000000e+02
1.320982654340757108e+03,2.610081688372756616e+02,8.116905037740248190e+02,1.020908599366372073e+03,2.204782834078291671e+02,2.574314784948915076e+02,5.735676434178369163e+03,5.935394124155791360e+02,9.446745872497558594e+00,-7.649186849594116211e-01,-1.376853704452514648e+00,1.950000000000000000e+02
1.147641962487306955e+03,4.277268984115503372e+02,9.143161142312983429e+02,1.043830534915825410e+03,3.127663199284429538e+02,4.137949470007038144e+02,5.701868958967171238e+03,7.407428057714164424e+02,9.446745872497558594e+00,-7.649186849594116211e-01,-1.376853704452514648e+00,1.960000000000000000e+02
1.098339128939056536e+03,3.901985953075663929e+02,9.628332157052891489e+02,1.110975942791476882e+03,3.633987952667803256e+02,4.208304224189014349e+02,5.270015395251244627e+03,7.465214611689921185e+02,9.446745872497558594e+00,-7.649186849594116211e-01,-1.376853704452514648e+00,1.970000000000000000e+02
1.205988537072038525e+03,2.218656288135607610e+02,9.009021360256842854e+02,1.132502539885575516e+03,3.244415079853383759e+02,2.897293057441488600e+02,4.514569286339587961e+03,6.150952219839509780e+02,9.446745872497558594e+00,-7.649186849594116211e-01,-1.376853704452514648e+00,1.980000000000000000e+02
1.286690330055967934e+03,1.766164772411098056e+02,8.242907042054694102e+02,1.082265618418506165e+03,2.716352642010269847e+02,2.216224612183978024e+02,4.223486580747637163e+03,5.393979426025866815e+02,9.446745872497558594e+00,-7.649186849594116211e-01,-1.376853704452514648e+00,1.990000000000000000e+02
1.194728661055103657e+03,3.395064849303153096e+02,8.481398738439420413e+02,1.032759894517029352e+03,2.981703508286063879e+02,3.291370164937488880e+02,4.361032611195264508e+03,6.335043279915726089e+02,9.446745872497558594e+00,-7.649186849594116211e-01,-1.376853704452514648e+00,2.000000000000000000e+02
1.025512050939784785e+03,5.079810803998170741e+02,9.481449246925758416e+02,1.054378996168972208e+03,3.861763536834005208e+02,4.807224227544252244e+02,4.049367004835429725e+03,7.754890449640734005e+02,9.446745872497558594e+00,-7.649186849594116211e-01,-1.376853704452514648e+00,2.010000000000000000e+02
9.839133153218035659e+02,4.700306461516261152e+02,9.940660073697149528e+02,1.118804227498016644e+03,4.319840865944074721e+02,4.841686048026244862e+02,3.334102332708505855e+03,7.770740310366395533e+02,9.446745872497558594e+00,-7.649186849594116211e-01,-1.376853704452514648e+00,2.020000000000000000e+02
1.099710772750175238e+03,2.977892091720298140e+02,9.293116912238524492e+02,1.138865889395548493e+03,3.887751341819448498e+02,3.536248207742569321e+02,3.069517303489222286e+03,6.442375799102514975e+02,9.446745872497558594e+00,-7.649186849594116211e-01,-1.376853704452514648e+00,2.030000000000000000e+02
1.185737547285082655e+03,2.486164945088805780e+02,8.493334162721953362e+02,1.088717053065922755e+03,3.313881011741414113e+02,2.885937773701793958e+02,3.006863109470354175e+03,5.690385283700029504e+02,9.446745872497558594e+00,-7.649186849594116211e-01,-1.376853704452514648e+00,2.040000000000000000e+02
1.097013779157667159e+03,4.085982192216758904e+02,8.702465450659283306e+02,1.039246970381973824e+03,3.547435341266095747e+02,3.964847845433159819e+02,2.302170496088639084e+03,6.649424702690025697e+02,9.446745872497558594e+00,-7.649186849594116211e-01,-1.376853704452514648e+00,2.050000000000000000e+02
9.311216544563221760e+02,5.732928240081018885e+02,9.682451737105616303e+02,1.060886177037078141e+03,4.432236539705882024e+02,5.450527418439669418e+02,1.866425503722046415e+03,8.103007813348663149e+02,9.446745872497558594e+00,-7.649186849594116211e-01,-1.376853704452514648e+00,2.060000000000000000e+02
8.926052685599051983e+02,5.320028280044309668e+02,1.012265688151883296e+03,1.126617448654519194e+03,4.903150210065455212e+02,5.464699104479391281e+02,3.477812769254625891e+03,8.156391708782853129e+02,9.446745872497558594e+00,-7.649186849594116211e-01,-1.376853704452514648e+00,2.070000000000000000e+02
1.010393051306657981e+03,3.597326579665200370e+02,9.459406026935348564e+02,1.148014086453768869e+03,4.448649724123638407e+02,4.155775819903074080e+02,6.482108639874645633e+03,6.848143996363455699e+02,9.446745872497558594e+00,-7.649186849594116211e-01,-1.376853704452514648e+00,2.080000000000000000e+02
1.098912858284493268e+03,3.118656480476472552e+02,8.661808474528284023e+02,1.096232030059359204e+03,3.831241843370453353e+02,3.476555756441753147e+02,8.227784779969413648e+03,6.094962290672460767e+02,9.446745872497558594e+00,-7.649186849594116211e-01,-1.376853704452514648e+00,2.090000000000000000e+02
1.014509554992002450e+03,4.704344325139566081e+02,8.883473745411165510e+02,1.042371130397356410e+03,4.038775924148253580e+02,4.498012009033468530e+02,7.898966046032506711e+03,7.037993723401364150e+02,9.446745872497558594e+00,-7.649186849594116211e-01,-1.376853704452514648e+00,2.100000000000000000e+02
8.527535916813294534e+02,6.319347345651644900e+02,9.856527469508228023e+02,1.060126838930073518e+03,4.906696942824555663e+02,5.946197908863910015e+02,7.122959798154750388e+03,8.458241252328730297e+02,9.446745872497558594e+00,-7.649186849594116211e-01,-1.376853704452514648e+00,2.110000000000000000e+02
8.158907161228262339e+02,5.894999318240463708e+02,1.026624974195133291e+03,1.123624690954216021e+03,5.345797418450388250e+02,5.953715594319796764e+02,6.901528550678981446e+03,8.464013639453062297e+02,9.446745872497558594e+00,-7.649186849594116211e-01,-1.376853704452514648e+00,2.120000000000000000e+02
9.339031370102657093e+02,4.182515335319942551e+02,9.579443526209788615e+02,1.142785775506818936e+03,4.863988115497500075e+02,4.626347774735172607e+02,6.633321766628282603e+03,7.114136745259161216e+02,9.446745872497558594e+00,-7.649186849594116211e-01,-1.376853704452514648e+00,2.130000000000000000e+02
1.023424159833217345e+03,3.706345869664999100e+02,8.780125871938821547e+02,1.088405610160671131e+03,4.249530731640156773e+02,3.904770023950250106e+02,6.105731171022173839e+03,6.338211029282686013e+02,9.446745872497558594e+00,-7.649186849594116211e-01,-1.376853704452514648e+00,2.140000000000000000e+02
9.407515128789118535e+02,5.273243418406129877e+02,9.003905418264735090e+02,1.032620519290105676e+03,4.472883523314394552e+02,4.897634027849705944e+02,5.905836245280118419e+03,7.271898119365350794e+02,9.446745872497558594e+00,-7.649186849594116211e-01,-1.376853704452514648e+00,2.150000000000000000e+02
7.801814774275135278e+02,6.855662236362691146e+02,9.972786154886416625e+02,1.048289832957259478e+03,5.349013788530162401e+02,6.347313068871301311e+02,5.923491010758571065e+03,8.694902531939253549e+02,9.446745872497558594e+00,-7.649186849594116211e-01,-1.376853704452514648e+00,2.160000000000000000e+02
7.435231956804909714e+02,6.396979751566238974e+02,1.038365397493119872e+03,1.108346966117294414e+03,5.801529123122356850e+02,6.360868650269719637e+02,5.503826949008393058e+03,8.716583932470732634e+02,9.446745872497558594e+00,-7.649186849594116211e-01,-1.376853704452514648e+00,2.170000000000000000e+02
8.609274043315945164e+02,4.657350615989585094e+02,9.704012546224803373e+02,1.125177160415887556e+03,5.343610990844842945e+02,5.029494202295318246e+02,4.828794097746490479e+03,7.374019385961685202e+02,9.446745872497558594e+00,-7.649186849594116211e-01,-1.376853704452514648e+00,2.180000000000000000e+02
9.497720069440824773e+02,4.156144229740980336e+02,8.903165433939161630e+02,1.073007066614423366e+03,4.738330275385651476e+02,4.305157702396161312e+02,4.541939083896334523e+03,6.570376063174803676e+02,9.446745872497558594e+00,-7.649186849594116211e-01,-1.376853704452514648e+00,2.190000000000000000e+02
8.679385086161082654e+02,5.686294400285353277e+02,9.116158026255820914e+02,1.022273738679495636e+03,4.943138502889771644e+02,5.299459337818343556e+02,4.519849780119448951e+03,7.452766576502604039e+02,9.446745872497558594e+00,-7.649186849594116211e-01,-1.376853704452514648e+00,2.200000000000000000e+02
7.099256342951453007e+02,7.230093790718940454e+02,1.007613864313994100e+03,1.040703142633696643e+03,5.789705557013796806e+02,6.745648621188288416e+02,4.301184513589996641e+03,8.838085546665254242e+02,9.446745872497558594e+00,-7.649186849594116211e-01,-1.376853704452514648e+00,2.210000000000000000e+02
6.749638090105686388e+02,6.759674357371150109e+02,1.047798904317521419e+03,1.099920351018689871e+03,6.215667517642161783e+02,6.753642262729720187e+02,4.074363176022676271e+03,8.851502019441516040e+02,9.446745872497558594e+00,-7.649186849594116211e-01,-1.376853704452514648e+00,2.220000000000000000e+02
7.913357310909163971e+02,5.032618415902550169e+02,9.783782299085355589e+02,1.115424756322353460e+03,5.734983011148840433e+02,5.424899675446051788e+02,4.182055684668323920e+03,7.518333830164358460e+02,9.446745872497558594e+00,-7.649186849594116211e-01,-1.376853704452514648e+00,2.230000000000000000e+02
8.782184935367408798e+02,4.534981173520222910e+02,8.972154887862270698e+02,1.063186357879615571e+03,5.111275065906572763e+02,4.708876583528183346e+02,4.320365154204818282e+03,6.726381621865280067e+02,9.446745872497558594e+00,-7.649186849594116211e-01,-1.376853704452514648e+00,2.240000000000000000e+02
7.959623139424543297e+02,6.056944373734529563e+02,9.183669423045337226e+02,1.012688805419686105e+03,5.297290146120997179e+02,5.704265703403405041e+02,4.098120206025585503e+03,7.609425750247658016e+02,9.446745872497558594e+00,-7.649186849594116211e-01,-1.376853704452514648e+00,2.250000000000000000e+02
6.389273627670922906e+02,7.612398468311043871e+02,1.013980318402825105e+03,1.031405240520884036e+03,6.116682655877100387e+02,7.133088194683421079e+02,3.766397980343564996e+03,8.975090008371839758e+02,9.446745872497558594e+00,-7.649186849594116211e-01,-1.376853704452514648e+00,2.260000000000000000e+02
6.054694100902743230e+02,7.174742596010510169e+02,1.053100333715389979e+03,1.090998890172865686e+03,6.517546078305579158e+02,7.101671237222813033e+02,3.725510548824500802e+03,8.958620800228932239e+02,9.446745872497558594e+00,-7.649186849594116211e-01,-1.376853704452514648e+00,2.270000000000000000e+02
7.241207970692207709e+02,5.464377180279054755e+02,9.830236362671635106e+02,1.104887261943716339e+03,6.032249373815259332e+02,5.725600910423543155e+02,3.858665043009666078e+03,7.609267201220168317e+02,9.446745872497558594e+00,-7.649186849594116211e-01,-1.376853704452514648e+00,2.280000000000000000e+02
8.134806474370948308e+02,4.954981597061491811e+02,9.013712865752872858e+02,1.048026929377365377e+03,5.414217384840280829e+02,4.982940566919039611e+02,3.845295084701139785e+03,6.819682947295141275e+02,9.446745872497558594e+00,-7.649186849594116211e-01,-1.376853704452514648e+00,2.290000000000000000e+02
7.317933109470013733e+02,6.465674023693557046e+02,9.203192140260457563e+02,9.938129038583751935e+02,5.586458943122158871e+02,5.982267056397474789e+02,3.669021112423933118e+03,7.699677008257904163e+02,9.446745872497558594e+00,-7.649186849594116211e-01,-1.376853704452514648e+00,2.300000000000000000e+02
5.724860710241787274e+02,8.031073526385184778e+02,1.011812843875679846e+03,1.014149053864631242e+03,6.367610445535110557e+02,7.422989115955324451e+02,3.473762587744781740e+03,9.037086584188371035e+02,9.446745872497558594e+00,-7.649186849594116211e-01,-1.376853704452514648e+00,2.310000000000000000e+02
5.352464713209533329e+02,7.614617867628937802e+02,1.046950260560173774e+03,1.079422458337973467e+03,6.729413328611017278e+02,7.396393409093475384e+02,3.340361874669005374e+03,8.982038687330909852e+02,9.446745872497558594e+00,-7.649186849594116211e-01,-1.376853704452514648e+00,2.320000000000000000e+02
6.504426192747619098e+02,5.916431040885925086e+02,9.745035727976780890e+02,1.098625542804166798e+03,6.223470896081880710e+02,6.034118868953837591e+02,3.369577634545491492e+03,7.619892451532987252e+02,9.446745872497558594e+00,-7.649186849594116211e-01,-1.376853704452514648e+00,2.330000000000000000e+02
7.380266750691607740e+02,5.388994064386843093e+02,8.919590665185930902e+02,1.044848311195624774e+03,5.605015397954991840e+02,5.318612872380501813e+02,3.526694382474297527e+03,6.859366880238596877e+02,9.446745872497558594e+00,-7.649186849594116211e-01,-1.376853704452514648e+00,2.340000000000000000e+02
6.570488142424346734e+02,6.834474417653450473e+02,9.109328565568525846e+02,9.913296376139569475e+02,5.791041773240799557e+02,6.326667453389570710e+02,3.439075537408481978e+03,7.791080457436992219e+02,9.446745872497558594e+00,-7.649186849594116211e-01,-1.376853704452514648e+00,2.350000000000000000e+02
5.004832709205747960e+02,8.296501690677896477e+02,1.003080423947400504e+03,1.009028002602623928e+03,6.593187299063010869e+02,7.743243840237141740e+02,2.964817363738897257e+03,9.179308701298059532e+02,9.446745872497558594e+00,-7.649186849594116211e-01,-1.376853704452514648e+00,2.360000000000000000e+02
4.666874712006638219e+02,7.775214824279821642e+02,1.039889570852726138e+03,1.069208105451751180e+03,6.980233017666491833e+02,7.693675485083081185e+02,2.789216859827890403e+03,9.170715243508011554e+02,9.446745872497558594e+00,-7.649186849594116211e-01,-1.376853704452514648e+00,2.370000000000000000e+02
5.855238439520071552e+02,6.004691152182338101e+02,9.708395136247218034e+02,1.084894022718338874e+03,6.504812068565161098e+02,6.330320530893559408e+02,3.594575484463086468e+03,7.844172642924925185e+02,9.446745872497558594e+00,-7.649186849594116211e-01,-1.376853704452514648e+00,2.380000000000000000e+02
6.772423120614330401e+02,5.450401354212176557e+02,8.922849179293002635e+02,1.031482945204957105e+03,5.916148927445947265e+02,5.603316812589855545e+02,4.843451224913800615e+03,7.083105938414480534e+02,9.408499717712402344e+00,-6.884268522262573242e-01,-1.376853704452514648e+00,2.390000000000000000e+02
6.005691624791334107e+02,6.907509429045626348e+02,9.128061395045542668e+02,9.798566142325798864e+02,6.117341041745166876e+02,6.569505573021747296e+02,5.362256978547493418e+03,7.972798535095716943e+02,9.408499717712402344e+00,-6.884268522262573242e-01,-1.376853704452514648e+00,2.400000000000000000e+02
4.477636731249976947e+02,8.394235950256015713e+02,1.003209765452846113e+03,9.981154939037228360e+02,6.913630476074663420e+02,7.952601019347753208e+02,5.014207393759696060e+03,9.313809670737696251e+02,9.408499717712402344e+00,-6.884268522262573242e-01,-1.376853704452514648e+00,2.410000000000000000e+02
4.168825283615105946e+02,7.888004114313926038e+02,1.037793781609287635e+03,1.057723106543000540e+03,7.275036145117132946e+02,7.905399022272290495e+02,4.722613036822927825e+03,9.277595156914298968e+02,9.408499717712402344e+00,-6.884268522262573242e-01,-1.376853704452514648e+00,2.420000000000000000e+02
5.373393382456906693e+02,6.132552078123835599e+02,9.680307720436671843e+02,1.072846881155502615e+03,6.751525824892714809e+02,6.538212389713517041e+02,4.922732984628488339e+03,7.918827554781573781e+02,9.408499717712402344e+00,-6.884268522262573242e-01,-1.376853704452514648e+00,2.430000000000000000e+02
6.290997510999677615e+02,5.612403226347487362e+02,8.892318767222423048e+02,1.018704616642231940e+03,6.098804677698226442e+02,5.756425402893569299e+02,5.090330467945599594e+03,7.099024285799960126e+02,9.408499717712402344e+00,-6.884268522262573242e-01,-1.376853704452514648e+00,2.440000000000000000e+02
5.524705961522504367e+02,7.102343718077922858e+02,9.095276758358213556e+02,9.658331607613386041e+02,6.250485667790912885e+02,6.643136761695959649e+02,4.848493832302214287e+03,7.928477886392074652e+02,9.408499717712402344e+00,-6.884268522262573242e-01,-1.376853704452514648e+00,2.450000000000000000e+02
4.021549123720160424e+02,8.582709421974132056e+02,1.000959560628994950e+03,9.827570403149470621e+02,7.036025549997575581e+02,7.974098377424002138e+02,4.537474865766040239e+03,9.236972383368101873e+02,9.408499717712402344e+00,-6.884268522262573242e-01,-1.376853704452514648e+00,2.460000000000000000e+02
3.761246362510064500e+02,8.038223262270876148e+02,1.036825105684567461e+03,1.041229874356584332e+03,7.408185252834346102e+02,7.908921281876137073e+02,4.521703438660355459e+03,9.188528983497726585e+02,9.408499717712402344e+00,-6.884268522262573242e-01,-1.376853704452514648e+00,2.470000000000000000e+02
5.012796125209315505e+02,6.251741085630083035e+02,9.653704331017252116e+02,1.055365399876132869e+03,6.883820316034198186e+02,6.541619580762417172e+02,4.671016251463279332e+03,7.826305786901607462e+02,9.408499717712402344e+00,-6.884268522262573242e-01,-1.376853704452514648e+00,2.480000000000000000e+02
5.964075534821549809e+02,5.718898692813900198e+02,8.816761978282220298e+02,1.000721006158676573e+03,6.213805393583447767e+02,5.782685697628676280e+02,4.690906857513211435e+03,7.019912836115240680e+02,9.408499717712402344e+00,-6.884268522262573242e-01,-1.376853704452514648e+00,2.490000000000000000e+02
5.229193229792981583e+02,7.203452628467812247e+02,8.974528540249912112e+02,9.483808167105662505e+02,6.344492980674135651e+02,6.714257336601658608e+02,4.518199395007577550e+03,7.872707489986851215e+02,9.408499717712402344e+00,-6.884268522262573242e-01,-1.376853704452514648e+00,2.500000000000000000e+02
3.759324064666016056e+02,8.690485586523273014e+02,9.869934819599047842e+02,9.667493294410478484e+02,7.103875870073406986e+02,8.076782090940228045e+02,4.302945768274854345e+03,9.183144443543537818e+02,9.408499717712402344e+00,-6.884268522262573242e-01,-1.376853704452514648e+00,2.510000000000000000e+02
3.520358193364554609e+02,8.163996323272863265e+02,1.022339629861826324e+03,1.026708171753651186e+03,7.442999471667326361e+02,8.008519164522404026e+02,4.229236685211573786e+03,9.106039093747567676e+02,9.408499717712402344e+00,-6.884268522262573242e-01,-1.376853704452514648e+00,2.520000000000000000e+02
4.774251233359809703e+02,6.373479762518172720e+02,9.501377835904495441e+02,1.041467471035570270e+03,6.899676454755463055e+02,6.633138704012048947e+02,4.330295188128480731e+03,7.711036593027292838e+02,9.408499717712402344e+00,-6.884268522262573242e-01,-1.376853704452514648e+00,2.530000000000000000e+02
5.720824810451194935e+02,5.793373082799730582e+02,8.655580701579938250e+02,9.862583406812846079e+02,6.239496783733402481e+02,5.886295767423066536e+02,4.407424790616230894e+03,6.886554360741347409e+02,9.408499717712402344e+00,-6.884268522262573242e-01,-1.376853704452514648e+00,2.540000000000000000e+02
4.981900411771221115e+02,7.222659670838429520e+02,8.805698996245064336e+02,9.324104786192656320e+02,6.382660538385116524e+02,6.823249821956815140e+02,4.263089516972664569e+03,7.729192266787149492e+02,9.408499717712402344e+00,-6.884268522262573242e-01,-1.376853704452514648e+00,2.550000000000000000e+02
3.494781380903586978e+02,8.697628594785505811e+02,9.688233739225815953e+02,9.488707868982164655e+02,7.122933962161532691e+02,8.160002822405458573e+02,4.008520267762636649e+03,9.034304372439673898e+02,9.408499717712402344e+00,-6.884268522262573242e-01,-1.376853704452514648e+00,2.560000000000000000e+02
3.213256427037867979e+02,8.206060109329255283e+02,1.002173977021012433e+03,1.007455408324450218e+03,7.423744761811267381e+02,8.064569118882900511e+02,3.931008530532642908e+03,8.966919295968164079e+02,9.408499717712402344e+00,-6.884268522262573242e-01,-1.376853704452514648e+00,2.570000000000000000e+02
4.419440412022413511e+02,6.461224049203747199e+02,9.286596414567766260e+02,1.022604067932308681e+03,6.865283204299721547e+02,6.687760286143657140e+02,4.067230043637711788e+03,7.594353785752318799e+02,9.408499717712402344e+00,-6.884268522262573242e-01,-1.376853704452514648e+00,2.580000000000000000e+02
5.349842449679745187e+02,5.911559777823467812e+02,8.450103424539956904e+02,9.698700522705457843e+02,6.224194279157363781e+02,5.933798209847564067e+02,4.146232217241835315e+03,6.783374304424223737e+02,9.408499717712402344e+00,-6.884268522262573242e-01,-1.376853704452514648e+00,2.590000000000000000e+02
4.636473034148530132e+02,7.352998012442540130e+02,8.627416805176853813e+02,9.191595222503765399e+02,6.395104151536816062e+02,6.828670746989973850e+02,3.984831201979606703e+03,7.618468826260923379e+02,9.446745872497558594e+00,-7.266727685928344727e-01,-1.338607788085937500e+00,2.600000000000000000e+02
3.196930192523395817e+02,8.819340517582750181e+02,9.533685384207619791e+02,9.374449523418679746e+02,7.155117396348523471e+02,8.121636906023377378e+02,3.740846661098712502e+03,8.909734829405606433e+02,9.446745872497558594e+00,-7.266727685928344727e-01,-1.338607788085937500e+00,2.610000000000000000e+02
2.970926026514462137e+02,8.298720685542575666e+02,9.874138001634928514e+02,9.954833214298505482e+02,7.466495206879153557e+02,8.011811738702035655e+02,3.680970967888737505e+03,8.841973825312898043e+02,9.446745872497558594e+00,-7.266727685928344727e-01,-1.338607788085937500e+00,2.620000000000000000e+02
4.239963002030381176e+02,6.523875093427704996e+02,9.132978426996469352e+02,1.007509831317049247e+03,6.895687183558320612e+02,6.615705383398708364e+02,3.815222337326544221e+03,7.482141295861574690e+02,9.446745872497558594e+00,-7.266727685928344727e-01,-1.338607788085937500e+00,2.630000000000000000e+02
5.227827680827685981e+02,5.955853424829956566e+02,8.285264175961201545e+02,9.498122750362890656e+02,6.209548834364804861e+02,5.808202462600320359e+02,3.890708318485892960e+03,6.687776783649942445e+02,9.446745872497558594e+00,-7.266727685928344727e-01,-1.338607788085937500e+00,2.640000000000000000e+02
4.544700029711239040e+02,7.368893524405484641e+02,8.452531429470673174e+02,8.945278994904529100e+02,6.333187141790904207e+02,6.655837694496567565e+02,3.737913708780735760e+03,7.546542217576661642e+02,9.446745872497558594e+00,-7.266727685928344727e-01,-1.338607788085937500e+00,2.650000000000000000e+02
3.108778725395841320e+02,8.789034791938247508e+02,9.361110313783528909e+02,9.107506988939294388e+02,7.083310302441450403e+02,7.943651766473385578e+02,3.500716958459586749e+03,8.869479056590344044e+02,9.446745872497558594e+00,-7.266727685928344727e-01,-1.338607788085937500e+00,2.660000000000000000e+02
2.878703841190254025e+02,8.248924325061798299e+02,9.724269430840513451e+02,9.688112219262129656e+02,7.414526584155973978e+02,7.840046224544230427e+02,3.440046530516065104e+03,8.819793944197463134e+02,9.446745872497558594e+00,-7.266727685928344727e-01,-1.338607788085937500e+00,2.670000000000000000e+02
4.139708754148396110e+02,6.494736391958276727e+02,9.016258140181280396e+02,9.813053302135676859e+02,6.859756771707725420e+02,6.445554454431940030e+02,3.576379123770857404e+03,7.448808349435066702e+02,9.446745872497558594e+00,-7.266727685928344727e-01,-1.338607788085937500e+00,2.680000000000000000e+02
5.108050479528665164e+02,5.908757769183839628e+02,8.189702551896007208e+02,9.247615420340225683e+02,6.181003457364231508e+02,5.684811750534954626e+02,3.657029988810510986e+03,6.635893306578127522e+02,9.446745872497558594e+00,-7.266727685928344727e-01,-1.338607788085937500e+00,2.690000000000000000e+02
4.405827508417169156e+02,7.218401453699361809e+02,8.349914077508028640e+02,8.725157986497015372e+02,6.314079358489916558e+02,6.637869667056675098e+02,3.507802274546615081e+03,7.493250021223684598e+02,9.446745872497558594e+00,-7.266727685928344727e-01,-1.338607788085937500e+00,2.700000000000000000e+02
2.972087194957111933e+02,8.539077942785042978e+02,9.224782444322891024e+02,8.929922127851168625e+02,7.068005196156564125e+02,8.010417408424282257e+02,3.273331453091675940e+03,8.818984007871531503e+02,9.446745872497558594e+00,-7.266727685928344727e-01,-1.338607788085937500e+00,2.710000000000000000e+02
2.759545385323817754e+02,7.994641374826460378e+02,9.549299194249633729e+02,9.547455912269142573e+02,7.396539694420916931e+02,7.913785149295035808e+02,3.216533182958450197e+03,8.761085504160455457e+02,9.446745872497558594e+00,-7.266727685928344727e-01,-1.338607788085937500e+00,2.720000000000000000e+02
4.029576732189998438e+02,6.293359513451923704e+02,8.824990151842948762e+02,9.693653547734102176e+02,6.855786417672152311e+02,6.489308480722284003e+02,3.354955953788063198e+03,7.388812222808874139e+02,9.446745872497558594e+00,-7.266727685928344727e-01,-1.338607788085937500e+00,2.730000000000000000e+02
4.995241295911728230e+02,5.760951586986348048e+02,8.007943236162345784e+02,9.123956610028253635e+02,6.208324226216591342e+02,5.706410235015700891e+02,3.436824381930626259e+03,6.589251264584445380e+02,9.446745872497558594e+00,-7.266727685928344727e-01,-1.338607788085937500e+00,2.740000000000000000e+02
4.295382167237366957e+02,7.140140204920371616e+02,8.183177592980646295e+02,8.564066323171864497e+02,6.355245202590213012e+02,6.628409267881097549e+02,3.289383178554780898e+03,7.443910123608484355e+02,9.446745872497558594e+00,-7.266727685928344727e-01,-1.338607788085937500e+00,2.750000000000000000e+02
2.874024313853187778e+02,8.518487437330504690e+02,9.071934818942199854e+02,8.719107564530113450e+02,7.097281687654276539e+02,7.956929576517595706e+02,3.057539445048514608e+03,8.739066103360955822e+02,9.446745872497558594e+00,-7.266727685928344727e-01,-1.338607788085937500e+00,2.760000000000000000e+02
2.675072107838277589e+02,7.936365827294557675e+02,9.420033735998140401e+02,9.316756684069150651e+02,7.416923523301611567e+02,7.843850206511251599e+02,3.003416008623313246e+03,8.654920861594528105e+02,9.446745872497558594e+00,-7.266727685928344727e-01,-1.338607788085937500e+00,2.770000000000000000e+02
3.961975140919093974e+02,6.142606910488693757e+02,8.716608426893326396e+02,9.488589646145410370e+02,6.869825949801561364e+02,6.434525225833658624e+02,3.144375657510776364e+03,7.272521967818420308e+02,9.446745872497558594e+00,-7.266727685928344727e-01,-1.338607788085937500e+00,2.780000000000000000e+02
4.959965033106636838e+02,5.603095080198763753e+02,7.888679336657969543e+02,8.963914981459656701e+02,6.188538683156348270e+02,5.650715849901953334e+02,3.228823414077858615e+03,6.451674648919961328e+02,9.446745872497558594e+00,-7.266727685928344727e-01,-1.338607788085937500e+00,2.790000000000000000e+02
4.304875139888172271e+02,7.058328446960276779e+02,8.030959545657387935e+02,8.433587839743522636e+02,6.285297986763780500e+02,6.544504893159146377e+02,3.085012778790674929e+03,7.273990204443825860e+02,9.446745872497558594e+00,-7.266727685928344727e-01,-1.338607788085937500e+00,2.800000000000000000e+02
2.921306611759719090e+02,8.467846380330411193e+02,8.902741956190184283e+02,8.584835028831876116e+02,7.001742960374267568e+02,7.855878310867592518e+02,2.856671661629450682e+03,8.558913321516538417e+02,9.446745872497558594e+00,-7.266727685928344727e-01,-1.338607788085937500e+00,2.810000000000000000e+02
2.743848955632602156e+02,7.857231680420172779e+02,9.251331654417317623e+02,9.148475316900421603e+02,7.317310332419492624e+02,7.747358583697314316e+02,2.805128701978901518e+03,8.485369666881470039e+02,9.446745872497558594e+00,-7.266727685928344727e-01,-1.338607788085937500e+00,2.820000000000000000e+02
4.044689110305116628e+02,6.047813258149362809e+02,8.543278655334379437e+02,9.280999175198630837e+02,6.761499419998144731e+02,6.339981569148239942e+02,2.948481399549360503e+03,7.106377477161940988e+02,9.446745872497558594e+00,-7.266727685928344727e-01,-1.338607788085937500e+00,2.830000000000000000e+02
5.053921090934018139e+02,5.478773760391723044e+02,7.720672558514888806e+02,8.740136170104087796e+02,6.084788828945092973e+02,5.553206756124163803e+02,3.036452143327143858e+03,6.289698944643187133e+02,9.446745872497558594e+00,-7.266727685928344727e-01,-1.338607788085937500e+00,2.840000000000000000e+02
4.398723340324722813e+02,6.859005532242299523e+02,7.900801924813877122e+02,8.216221351488402433e+02,6.221297718263394927e+02,6.447915707083066081e+02,2.896036298325685493e+03,7.134757822380252037e+02,9.484992027282714844e+00,-6.884268522262573242e-01,-1.376853704452514648e+00,2.850000000000000000e+02
2.999137118449543777e+02,8.260579423210811001e+02,8.806888826262384100e+02,8.371296777342286077e+02,6.973008066672500718e+02,7.743965918399353541e+02,2.670828269500394526e+03,8.432092074124884675e+02,9.484992027282714844e+00,-6.884268522262573242e-01,-1.376853704452514648e+00,2.860000000000000000e+02
2.797419304138238658e+02,7.772429635527923892e+02,9.140149478268904204e+02,8.924617093792967353e+02,7.277832234027519007e+02,7.592818959767719207e+02,2.622791461827437161e+03,8.334293835446205776e+02,9.484992027282714844e+00,-6.884268522262573242e-01,-1.376853704452514648e+00,2.870000000000000000e+02
4.071506126803869847e+02,6.058362952832248993e+02,8.391410728044993448e+02,9.044788658714151097e+02,6.694236640059243655e+02,6.153318535973685357e+02,2.769722380033235822e+03,6.928145870547232335e+02,9.484992027282714844e+00,-6.884268522262573242e-01,-1.376853704452514648e+00,2.880000000000000000e+02
5.054145706563867861e+02,5.420696062858132791e+02,7.548296230894065957e+02,8.502926193145358411e+02,6.009190518485593202e+02,5.375307258260982053e+02,2.860389090865886828e+03,6.111668077798894956e+02,9.484992027282714844e+00,-6.884268522262573242e-01,-1.376853704452514648e+00,2.890000000000000000e+02
4.386408956534614845e+02,6.664976802728961047e+02,7.714029446349450154e+02,7.993511921105873625e+02,6.132577309351727308e+02,6.293445299041086400e+02,2.722331023359329265e+03,6.954859710781838658e+02,9.484992027282714844e+00,-6.884268522262573242e-01,-1.376853704452514648e+00,2.900000000000000000e+02
3.002027619758518995e+02,7.989899853296210495e+02,8.584900356650887261e+02,8.174194667038409534e+02,6.845437589825942268e+02,7.601797058819302038e+02,2.500477700593946793e+03,8.232261959833704168e+02,9.484992027282714844e+00,-6.884268522262573242e-01,-1.376853704452514648e+00,2.910000000000000000e+02
2.828534016019693809e+02,7.454756377449411957e+02,8.890573470699528116e+02,8.748360450819491234e+02,7.125026669103463064e+02,7.475536048513949936e+02,2.456217288727108098e+03,8.143912479439823073e+02,9.484992027282714844e+00,-6.884268522262573242e-01,-1.376853704452514648e+00,2.920000000000000000e+02
4.113886444545423728e+02,5.694637335086463281e+02,8.151170021774451016e+02,8.871812266577599075e+02,6.559444604997497663e+02,6.089095821269202133e+02,2.605698461997730192e+03,6.799828951023628179e+02,9.484992027282714844e+00,-6.884268522262573242e-01,-1.376853704452514648e+00,2.930000000000000000e+02
5.087075935167886200e+02,5.083708641745379282e+02,7.323381987740249315e+02,8.326647490693139844e+02,5.901269031187275687e+02,5.352846678576115664e+02,2.698138269860792207e+03,6.040085897399858368e+02,9.484992027282714844e+00,-6.884268522262573242e-01,-1.376853704452514648e+00,2.940000000000000000e+02
4.407907394723370089e+02,6.429208124380656955e+02,7.479637257943159057e+02,7.823738229008413327e+02,6.027782460539347085e+02,6.267871097251663741e+02,2.563060819666126918e+03,6.886260359006191720e+02,9.484992027282714844e+00,-6.884268522262573242e-01,-1.376853704452514648e+00,2.950000000000000000e+02
3.012221892181987641e+02,7.811376738343333272e+02,8.343659537982584880e+02,8.012799284250140772e+02,6.739477878786910878e+02,7.553977778146454511e+02,2.345525292213744251e+03,8.145122196123211324e+02,9.484992027282714844e+00,-6.884268522262573242e-01,-1.376853704452514648e+00,2.960000000000000000e+02
2.817966906281726551e+02,7.249297228859068127e+02,8.671662246561645588e+02,8.584383313458347402e+02,7.030947723153185507e+02,7.418224390611121635e+02,2.305083952273969771e+03,8.056960939667660568e+02,9.484992027282714844e+00,-6.884268522262573242e-01,-1.376853704452514648e+00,2.970000000000000000e+02
4.088870154915421153e+02,5.473614175705479283e+02,7.955871267482816620e+02,8.705561460727913072e+02,6.465188594622250093e+02,6.018008585425777710e+02,2.457096752487275808e+03,6.707895784552838450e+02,9.484992027282714844e+00,-6.884268522262573242e-01,-1.376853704452514648e+00,2.980000000000000000e+02
5.081485526735341409e+02,4.911597361802778323e+02,7.126299374783320673e+02,8.167147510964096000e+02,5.774138522128760087e+02,5.239215221966660465e+02,2.551766173761054233e+03,5.903103831153184728e+02,9.484992027282714844e+00,-6.884268522262573242e-01,-1.376853704452514648e+00,2.990000000000000000e+02
4.448569767460576259e+02,6.311180197539197252e+02,7.280810912976794498e+02,7.658554817057665787e+02,5.856482607975776773e+02,6.101902331879027770e+02,2.419231542524357792e+03,6.686419589689285203e+02,9.484992027282714844e+00,-6.884268522262573242e-01,-1.376853704452514648e+00,3.000000000000000000e+02
3.093781765067433298e+02,7.709233732781376602e+02,8.171860333434415224e+02,7.814626706354210910e+02,6.542304046642202593e+02,7.357380893756853766e+02,2.203994907426356804e+03,7.907670381593652564e+02,9.484992027282714844e+00,-6.884268522262573242e-01,-1.376853704452514648e+00,3.010000000000000000e+02
2.925027785129132099e+02,7.157580866699790931e+02,8.537248187495370075e+02,8.350917539983347524e+02,6.826890732348874735e+02,7.210871115865811589e+02,2.165350174941122532e+03,7.805418442879708891e+02,9.484992027282714844e+00,-6.884268522262573242e-01,-1.376853704452514648e+00,3.020000000000000000e+02
4.216858093865739647e+02,5.406138000172104512e+02,7.839782275896941428e+02,8.460889783572201850e+02,6.258782149421313079e+02,5.801405946658596804e+02,2.319367928878964449e+03,6.436220725392995519e+02,9.484992027282714844e+00,-6.884268522262573242e-01,-1.376853704452514648e+00,3.030000000000000000e+02
5.225997276570415124e+02,4.842931017659811914e+02,7.013840965606086684e+02,7.924150661442436103e+02,5.568024937395966845e+02,5.011701720225173631e+02,2.416846337384151411e+03,5.604756238530135306e+02,9.484992027282714844e+00,-6.884268522262573242e-01,-1.376853704452514648e+00,3.040000000000000000e+02
4.603883603542417404e+02,6.197711603520874633e+02,7.167696771004029870e+02,7.410089804491508403e+02,5.660356014860972209e+02,5.865562312444635609e+02,2.287637685894376773e+03,6.378709335498533619e+02,9.484992027282714844e+00,-6.884268522262573242e-01,-1.376853704452514648e+00,3.050000000000000000e+02
3.269314335716881033e+02,7.565373632110640756e+02,8.033717915837587498e+02,7.558641046150296461e+02,6.359659543153175036e+02,7.111322609067447047e+02,2.075468712474568747e+03,7.608842031428885093e+02,9.484992027282714844e+00,-6.884268522262573242e-01,-1.376853704452514648e+00,3.060000000000000000e+02
3.133802425943213166e+02,7.050441230000778887e+02,8.335285711910310056e+02,8.096404205178405391e+02,6.644480020987102762e+02,6.955131786019028368e+02,2.038867301848949865e+03,7.513689001866496255e+02,9.484992027282714844e+00,-6.884268522262573242e-01,-1.376853704452514648e+00,3.070000000000000000e+02
4.445978970236028545e+02,5.350451499536138726e+02,7.574789509741203801e+02,8.211522362245268596e+02,6.066561823556057789e+02,5.545846514205368294e+02,2.193606019030055904e+03,6.152409749876951537e+02,9.484992027282714844e+00,-6.884268522262573242e-01,-1.376853704452514648e+00,3.080000000000000000e+02
5.448449493090447504e+02,4.759790868899144698e+02,6.739324901396812493e+02,7.677889141735140583e+02,5.382185429948476667e+02,4.772882925456415251e+02,2.291323354979518626e+03,5.350543981087430438e+02,9.484992027282714844e+00,-6.884268522262573242e-01,-1.376853704452514648e+00,3.090000000000000000e+02
4.814790903172906837e+02,6.025642119823605753e+02,6.926422086138427403e+02,7.173380167507821170e+02,5.503449714004746056e+02,5.658837459487476735e+02,2.162464706493708945e+03,6.166307752337506827e+02,9.484992027282714844e+00,-6.884268522262573242e-01,-1.376853704452514648e+00,3.100000000000000000e+02
3.479325519940903177e+02,7.352205886799929431e+02,7.815271542774044065e+02,7.347467928127734922e+02,6.224560476023507363e+02,6.943893506695094402e+02,1.952166847854248772e+03,7.414174480259353004e+02,9.484992027282714844e+00,-6.884268522262573242e-01,-1.376853704452514648e+00,3.110000000000000000e+02
3.336619250459843897e+02,6.867570121329463291e+02,8.118826141360987094e+02,7.922359156528327730e+02,6.507275798706177738e+02,6.816350887874777982e+02,1.917775669640599517e+03,7.307816791530076443e+02,9.599730491638183594e+00,-6.501809358596801758e-01,-1.262115836143493652e+00,3.120000000000000000e+02
4.625815302498740493e+02,5.178113347700546001e+02,7.368253903061486199e+02,8.069211123548811884e+02,5.928342100005538668e+02,5.411401595158604323e+02,2.074287631053171935e+03,5.942429893364133022e+02,9.599730491638183594e+00,-6.501809358596801758e-01,-1.262115836143493652e+00,3.130000000000000000e+02
5.608498821749526542e+02,4.538847020334287663e+02,6.541930749227576598e+02,7.545179108882584842e+02,5.263551011945783102e+02,4.632511573061965464e+02,2.173866567944074632e+03,5.165391703474306269e+02,9.599730491638183594e+00,-6.501809358596801758e-01,-1.262115836143493652e+00,3.140000000000000000e+02
4.967245497868498205e+02,5.758100443836992781e+02,6.701544489237930975e+02,7.028939561668485112e+02,5.403774755630147411e+02,5.528577567652300786e+02,2.047829588714659621e+03,6.019644177056361514e+02,9.599730491638183594e+00,-6.501809358596801758e-01,-1.262115836143493652e+00,3.150000000000000000e+02
3.619893720998879871e+02,7.057506261897397053e+02,7.547369476587919053e+02,7.189635782881632622e+02,6.124479864466338768e+02,6.838286883360597130e+02,1.839035758882193477e+03,7.303654277348450705e+02,9.599730491638183594e+00,-6.501809358596801758e-01,-1.262115836143493652e+00,3.160000000000000000e+02
3.455469670368765946e+02,6.503151366355286882e+02,7.854911108373598836e+02,7.762344996071478818e+02,6.406225872959730623e+02,6.728548320452173357e+02,1.804734461677529907e+03,7.233811798633651051e+02,9.599730491638183594e+00,-6.501809358596801758e-01,-1.262115836143493652e+00,3.170000000000000000e+02
4.729971136751191807e+02,4.710668043138321082e+02,7.155690396323261666e+02,7.909483222865746939e+02,5.840235214167187223e+02,5.334021967451590172e+02,1.961390071556161274e+03,5.903394597758833697e+02,9.599730491638183594e+00,-6.501809358596801758e-01,-1.262115836143493652e+00,3.180000000000000000e+02
5.714003583806188544e+02,4.048618446520886209e+02,6.362885996589066053e+02,7.380633926119407988e+02,5.176673201317644271e+02,4.566329270935893874e+02,2.061810785907946411e+03,5.140916857432166580e+02,9.599730491638183594e+00,-6.501809358596801758e-01,-1.262115836143493652e+00,3.190000000000000000e+02
5.084981119691437925e+02,5.370306566467952507e+02,6.512078655693439941e+02,6.864696277617949818e+02,5.282995328158904158e+02,5.455642903437292262e+02,1.936643001939424721e+03,5.975105246848506795e+02,9.599730491638183594e+00,-6.501809358596801758e-01,-1.262115836143493652e+00,3.200000000000000000e+02
3.759749307449092157e+02,6.796097255323675199e+02,7.343724927894218126e+02,7.037478929874596361e+02,5.957267516704341688e+02,6.730396040009472927e+02,1.729052666779367428e+03,7.215388770506106084e+02,9.599730491638183594e+00,-6.501809358596801758e-01,-1.262115836143493652e+00,3.210000000000000000e+02
3.624713051233993610e+02,6.295730706230078795e+02,7.659164568853375386e+02,7.623679627913188597e+02,6.216730572820888483e+02,6.602227648687621695e+02,1.697117166121177434e+03,7.106443374053123989e+02,9.599730491638183594e+00,-6.501809358596801758e-01,-1.262115836143493652e+00,3.220000000000000000e+02
4.921720988935703645e+02,4.514017452775260608e+02,6.968671019886387512e+02,7.779045305379368074e+02,5.653801351790389162e+02,5.242432995772178401e+02,1.856218479125935119e+03,5.757590300685988041e+02,9.599730491638183594e+00,-6.501809358596801758e-01,-1.262115836143493652e+00,3.230000000000000000e+02
5.916742618917123764e+02,3.889377625879023981e+02,6.170315497742631123e+02,7.259423047288291855e+02,4.995799713355809217e+02,4.511574144272817648e+02,1.957780731004546396e+03,4.982928047602472361e+02,9.599730491638183594e+00,-6.501809358596801758e-01,-1.262115836143493652e+00,3.240000000000000000e+02
5.300758602464266005e+02,5.270928899872633338e+02,6.311400755053182365e+02,6.752935695915803080e+02,5.102126983580783417e+02,5.370045519030645664e+02,1.833926951616027509e+03,5.789045739638459054e+02,9.599730491638183594e+00,-6.501809358596801758e-01,-1.262115836143493652e+00,3.250000000000000000e+02
3.992774963692791061e+02,6.736776553093532129e+02,7.133722132218754268e+02,6.923740714533851133e+02,5.776599004577328742e+02,6.571870594189895201e+02,1.629841494225984206e+03,6.990709222464138293e+02,9.599730491638183594e+00,-6.501809358596801758e-01,-1.262115836143493652e+00,3.260000000000000000e+02
3.863020423607158591e+02,6.257458429800244630e+02,7.426963341991759080e+02,7.495462443443793745e+02,6.032052531931476551e+02,6.403235988229425857e+02,1.602183539194360492e+03,6.855863142794296436e+02,9.599730491638183594e+00,-6.501809358596801758e-01,-1.262115836143493652e+00,3.270000000000000000e+02
5.154136109431565274e+02,4.495412342544750572e+02,6.713424463609917439e+02,7.636713980220338271e+02,5.451734464948967798e+02,5.039406801353979972e+02,1.763947892246214906e+03,5.497412964528048178e+02,9.599730491638183594e+00,-6.501809358596801758e-01,-1.262115836143493652e+00,3.280000000000000000e+02
6.155332360584507114e+02,3.863281422641084646e+02,5.918811678003621637e+02,7.109544078809631173e+02,4.770331335062292055e+02,4.296756294603255810e+02,1.867626384797229548e+03,4.715861340139526874e+02,9.599730491638183594e+00,-6.501809358596801758e-01,-1.262115836143493652e+00,3.290000000000000000e+02
5.565079266144311987e+02,5.180562065688318398e+02,6.087925680678963545e+02,6.593788104885097709e+02,4.863954911020300642e+02,5.138184373529329605e+02,1.747292709385103080e+03,5.518207920285094588e+02,9.599730491638183594e+00,-6.501809358596801758e-01,-1.262115836143493652e+00,3.300000000000000000e+02
4.288199026333750226e+02,6.564488286570958735e+02,6.931962572196644032e+02,6.744428202107883408e+02,5.539772158967316500e+02,6.343994229538948275e+02,1.546225575565971667e+03,6.727931945010350319e+02,9.599730491638183594e+00,-6.501809358596801758e-01,-1.262115836143493652e+00,3.310000000000000000e+02
4.191896135325368959e+02,6.058379701879603090e+02,7.227484065825847210e+02,7.288301388106337981e+02,5.803133054770478338e+02,6.182244583399005933e+02,1.518115074255358195e+03,6.603713821628407459e+02,9.599730491638183594e+00,-6.501809358596801758e-01,-1.262115836143493652e+00,3.320000000000000000e+02
5.524378367616809555e+02,4.333970681380269525e+02,6.510059360815903347e+02,7.408708171049984230e+02,5.234609438638071879e+02,4.805733218166133156e+02,1.677552244103775593e+03,5.244225276794459205e+02,9.599730491638183594e+00,-6.501809358596801758e-01,-1.262115836143493652e+00,3.330000000000000000e+02
6.556725717275112402e+02,3.740302013612490555e+02,5.714333235209596751e+02,6.880621960411517648e+02,4.569070169295700907e+02,4.059437611561552330e+02,1.781125361637226888e+03,4.458450550479246886e+02,9.599730491638183594e+00,-6.501809358596801758e-01,-1.262115836143493652e+00,3.340000000000000000e+02
5.959140267244947609e+02,5.042569631594087696e+02,5.883827177892235341e+02,6.384424297494442726e+02,4.679823113457205181e+02,4.932542076682220795e+02,1.663399312233901583e+03,5.271838515651543275e+02,9.599730491638183594e+00,-6.501809358596801758e-01,-1.262115836143493652e+00,3.350000000000000000e+02
4.641311646597532672e+02,6.365412428334639117e+02,6.736694253389141522e+02,6.568683834295152337e+02,5.376192849260187359e+02,6.176965932010607503e+02,1.465023852361642639e+03,6.509505884279024031e+02,9.599730491638183594e+00,-6.501809358596801758e-01,-1.262115836143493652e+00,3.360000000000000000e+02
4.500295859635371016e+02,5.798940348756877938e+02,7.055804612937063212e+02,7.153173374596008216e+02,5.668520695436272945e+02,6.028328604943817481e+02,1.437685921443859115e+03,6.418167070296185557e+02,9.599730491638183594e+00,-6.501809358596801758e-01,-1.262115836143493652e+00,3.370000000000000000e+02
5.794973801029627793e+02,4.054205795990528713e+02,6.361191839664425061e+02,7.306465136928527500e+02,5.128290005524977460e+02,4.649093491675375844e+02,1.598235613946715603e+03,5.084931302386503376e+02,9.599730491638183594e+00,-6.501809358596801758e-01,-1.262115836143493652e+00,3.380000000000000000e+02
6.788452286744868616e+02,3.484171000638234545e+02,5.569744820959858771e+02,6.785105395379105175e+02,4.473461207958280283e+02,3.901258429309382336e+02,1.702727659850439522e+03,4.310971345590151032e+02,9.599730491638183594e+00,-6.501809358596801758e-01,-1.262115836143493652e+00,3.390000000000000000e+02
6.158295646329643205e+02,4.829265712611922936e+02,5.736771049799535831e+02,6.270421751793692238e+02,4.578211632045931765e+02,4.771408504141836602e+02,1.584647714248116245e+03,5.123881709854722430e+02,9.599730491638183594e+00,-6.501809358596801758e-01,-1.262115836143493652e+00,3.400000000000000000e+02
4.831610803416042472e+02,6.194911383597682288e+02,6.599398730175198580e+02,6.429792433806833287e+02,5.264873924210951373e+02,6.012143559120559075e+02,1.386198552511807065e+03,6.363380147507086804e+02,9.599730491638183594e+00,-6.501809358596801758e-01,-1.262115836143493652e+00,3.410000000000000000e+02
4.698664428619231330e+02,5.672892183583098813e+02,6.924960670089312771e+02,6.989353123564615089e+02,5.542053404332109494e+02,5.869192723640117038e+02,1.362465920626273146e+03,6.285667215581706841e+02,9.599730491638183594e+00,-6.501809358596801758e-01,-1.262115836143493652e+00,3.420000000000000000e+02
5.992045566146189230e+02,3.973917075534627656e+02,6.205389809957559919e+02,7.110879200590206892e+02,4.974254174468078418e+02,4.505391724417713704e+02,1.527852970326784998e+03,4.970114302385773044e+02,9.370253562927246094e+00,-7.649186849594116211e-01,-1.262115836143493652e+00,3.430000000000000000e+02
6.964109207741857972e+02,3.437637893856590381e+02,5.369558680169102445e+02,6.556997770360394497e+02,4.294290276721294504e+02,3.774958853895877837e+02,1.635410403155576205e+03,4.206389547121252690e+02,9.370253562927246094e+00,-7.649186849594116211e-01,-1.262115836143493652e+00,3.440000000000000000e+02
6.299825043669407023e+02,4.802003476473728369e+02,5.510423681862266676e+02,6.018793302176127327e+02,4.396201834061939735e+02,4.657953915618854808e+02,1.518142170815583086e+03,5.018341290191856388e+02,9.370253562927246094e+00,-7.649186849594116211e-01,-1.262115836143493652e+00,3.450000000000000000e+02
4.924308723453214043e+02,6.186383299445151351e+02,6.370654705636661674e+02,6.153458173795952462e+02,5.094446876519359648e+02,5.898412564826758171e+02,1.320209231300585088e+03,6.245731621398008429e+02,9.370253562927246094e+00,-7.649186849594116211e-01,-1.262115836143493652e+00,3.460000000000000000e+02
4.714688087217436987e+02,5.689775362989130372e+02,6.694829477516650513e+02,6.683378142572109937e+02,5.377806110501296644e+02,5.739984907272046257e+02,1.297544357355174725e+03,6.150982155592573690e+02,9.370253562927246094e+00,-7.649186849594116211e-01,-1.262115836143493652e+00,3.470000000000000000e+02
5.906355200893085566e+02,4.022767109935630288e+02,5.975445599894665065e+02,6.801894512220751494e+02,4.811672672869717644e+02,4.361497540760428819e+02,1.463856969147658674e+03,4.828647764949055272e+02,9.370253562927246094e+00,-7.649186849594116211e-01,-1.262115836143493652e+00,3.480000000000000000e+02
6.777221477410566877e+02,3.529155700396840984e+02,5.161722519409049710e+02,6.297624249453729135e+02,4.139027003505470930e+02,3.633861783290194580e+02,1.572025721559199155e+03,4.076715460903469648e+02,9.370253562927246094e+00,-7.649186849594116211e-01,-1.262115836143493652e+00,3.490000000000000000e+02
6.035982511632464593e+02,4.932542481395903451e+02,5.339777116084260342e+02,5.837526793423821800e+02,4.249765938913988066e+02,4.536045827815214579e+02,1.455723738122440409e+03,4.910252217273082351e+02,9.370253562927246094e+00,-7.649186849594116211e-01,-1.262115836143493652e+00,3.500000000000000000e+02
4.613533531120046973e+02,6.314134454812738113e+02,6.226852613004484738e+02,6.037336966233633575e+02,4.952608140667834959e+02,5.803141515905699634e+02,1.259389034112027730e+03,6.156578779761330225e+02,9.370253562927246094e+00,-7.649186849594116211e-01,-1.262115836143493652e+00,3.510000000000000000e+02
4.385924979900810285e+02,5.772007094389482518e+02,6.570028251187686692e+02,6.604752922581756138e+02,5.243091170775805949e+02,5.668915956459313747e+02,1.238431587456419948e+03,6.068259099198294280e+02,9.370253562927246094e+00,-7.649186849594116211e-01,-1.262115836143493652e+00,3.520000000000000000e+02
5.591564164200535743e+02,4.079991367821894528e+02,5.878065197634714423e+02,6.730747456439785310e+02,4.688072583299144753e+02,4.296746377647614281e+02,1.405874621967683197e+03,4.726786282452776504e+02,9.370253562927246094e+00,-7.649186849594116211e-01,-1.262115836143493652e+00,3.530000000000000000e+02
6.506479232192650670e+02,3.619773679520294536e+02,5.084150814429813181e+02,6.201037168717448367e+02,4.018243391932555824e+02,3.552316250312251213e+02,1.514697879705228843e+03,3.929966539095985354e+02,9.370253562927246094e+00,-7.649186849594116211e-01,-1.262115836143493652e+00,3.540000000000000000e+02
5.823350003818632104e+02,5.056559708448767196e+02,5.250129073203534062e+02,5.703393175148812588e+02,4.120584774620292592e+02,4.432727621503072442e+02,1.399633618539373856e+03,4.721491080438681820e+02,9.370253562927246094e+00,-7.649186849594116211e-01,-1.262115836143493652e+00,3.550000000000000000e+02
4.454082903170055943e+02,6.399536211009799445e+02,6.112973908960702829e+02,5.889564842604304431e+02,4.819406997513870010e+02,5.690137205746214022e+02,1.205564415595756145e+03,5.955623992629953136e+02,9.370253562927246094e+00,-7.649186849594116211e-01,-1.262115836143493652e+00,3.560000000000000000e+02
4.268586039711080957e+02,5.766751497849363659e+02,6.455340924166739569e+02,6.471179078506756923e+02,5.123494585047883447e+02,5.557356360701960512e+02,1.186580526090328931e+03,5.877581554544303799e+02,9.370253562927246094e+00,-7.649186849594116211e-01,-1.262115836143493652e+00,3.570000000000000000e+02
5.509306993593345396e+02,3.995960448240839469e+02,5.779547635095077567e+02,6.611179097680724226e+02,4.599316952961416973e+02,4.197133308502379805e+02,1.354749277700640960e+03,4.552719317040864553e+02,9.370253562927246094e+00,-7.649186849594116211e-01,-1.262115836143493652e+00,3.580000000000000000e+02
6.454525439272983931e+02,3.475707418856072763e+02,4.992150588297045033e+02,6.079437507263355656e+02,3.971301327478868188e+02,3.476090713491212227e+02,1.464374637860775692e+03,3.784236000558121304e+02,9.370253562927246094e+00,-7.649186849594116211e-01,-1.262115836143493652e+00,3.590000000000000000e+02
5.795513576022349298e+02,4.853754162370314589e+02,5.155181154503188736e+02,5.566428408955762279e+02,4.114630292495603499e+02,4.377154114371660398e+02,1.351658346891519614e+03,4.617954790124604187e+02,9.370253562927246094e+00,-7.649186849594116211e-01,-1.262115836143493652e+00,3.600000000000000000e+02
4.442169468280917499e+02,6.176015197300694126e+02,6.013081729296754929e+02,5.724764404313173145e+02,4.836569721766427392e+02,5.645570618815690977e+02,1.160216911102703307e+03,5.888953893140715081e+02,9.370253562927246094e+00,-7.649186849594116211e-01,-1.262115836143493652e+00,3.610000000000000000e+02
4.259054948296688963e+02,5.594520356135180918e+02,6.341992534999735653e+02,6.275500062400242314e+02,5.140395363114294014e+02,5.534935139668777992e+02,1.141204023403130122e+03,5.837064456540319952e+02,9.370253562927246094e+00,-7.649186849594116211e-01,-1.262115836143493652e+00,3.620000000000000000e+02
5.482418984439573251e+02,3.885997913410319597e+02,5.658487552858205163e+02,6.406910454696553643e+02,4.605589142026583431e+02,4.211996569161237858e+02,1.309062670324259670e+03,4.546375712720255251e+02,9.370253562927246094e+00,-7.649186849594116211e-01,-1.262115836143493652e+00,3.630000000000000000e+02
6.395853858837217558e+02,3.359511497843232064e+02,4.901423158192410483e+02,5.896435610198313952e+02,3.967032093724046717e+02,3.504638218093459727e+02,1.419857290030660806e+03,3.816202617349954380e+02,9.446745872497558594e+00,-7.649186849594116211e-01,-1.338607788085937500e+00,3.640000000000000000e+02
5.707956293009337969e+02,4.700526742464790004e+02,5.116463915364365675e+02,5.408982434356512385e+02,4.093585896893273457e+02,4.375025493822431599e+02,1.309156919438057230e+03,4.657630345642464818e+02,9.446745872497558594e+00,-7.649186849594116211e-01,-1.338607788085937500e+00,3.650000000000000000e+02
4.340747376694635022e+02,6.056003769818780711e+02,5.988547664195575635e+02,5.573887316656109761e+02,4.784800400406456902e+02,5.597290391108981567e+02,1.119165086348220939e+03,5.894758094688513665e+02,9.446745872497558594e+00,-7.649186849594116211e-01,-1.338607788085937500e+00,3.660000000000000000e+02
4.158009657997172326e+02,5.582270217853401846e+02,6.282275189819338266e+02,6.111615651970205363e+02,5.049257636870752322e+02,5.440316663206540397e+02,1.102267209999015904e+03,5.793479296286532190e+02,9.446745872497558594e+00,-7.649186849594116211e-01,-1.338607788085937500e+00,3.670000000000000000e+02
5.391846541101112962e+02,3.969681934633917990e+02,5.560453767473154585e+02,6.214609677574917441e+02,4.477515710017105448e+02,4.052009230203293555e+02,1.271640375092276372e+03,4.454227069625885633e+02,9.446745872497558594e+00,-7.649186849594116211e-01,-1.338607788085937500e+00,3.680000000000000000e+02
6.321028405858087353e+02,3.486235986680112546e+02,4.779319132809032453e+02,5.668841743088632938e+02,3.812191180450536194e+02,3.277194289049512008e+02,1.382816861377548776e+03,3.674137211495653901e+02,9.446745872497558594e+00,-7.649186849594116211e-01,-1.338607788085937500e+00,3.690000000000000000e+02
5.643409677783201914e+02,4.837980108109695720e+02,4.960453746964049060e+02,5.165417012925317977e+02,3.928501065179298166e+02,4.133873401453893166e+02,1.272209779752854956e+03,4.479368604333831172e+02,9.446745872497558594e+00,-7.649186849594116211e-01,-1.338607788085937500e+00,3.700000000000000000e+02
4.271479451234336011e+02,6.165298372719262261e+02,5.794703768056642730e+02,5.352762374223675579e+02,4.632460199617780745e+02,5.401560110498685390e+02,1.083621331626549363e+03,5.719968985022096604e+02,9.446745872497558594e+00,-7.649186849594116211e-01,-1.338607788085937500e+00,3.710000000000000000e+02
4.070711084038921399e+02,5.595584361683577299e+02,6.083088671286604949e+02,5.935661917348188581e+02,4.934538632400362985e+02,5.300166458438252448e+02,1.068815706459514331e+03,5.660922653054258262e+02,9.446745872497558594e+00,-7.649186849594116211e-01,-1.338607788085937500e+00,3.720000000000000000e+02
5.280711332639330067e+02,3.841718892567041621e+02,5.389912930014252197e+02,6.082275591640791390e+02,4.415859524570842041e+02,3.964183753308388987e+02,1.239088827636296628e+03,4.379898332494340139e+02,9.446745872497558594e+00,-7.649186849594116211e-01,-1.338607788085937500e+00,3.730000000000000000e+02
6.189252954398980364e+02,3.228350392802531132e+02,4.643820129695523065e+02,5.573942189164154115e+02,3.798134694902473711e+02,3.259845782731426880e+02,1.350424129945735331e+03,3.656858556782826781e+02,9.446745872497558594e+00,-7.649186849594116211e-01,-1.338607788085937500e+00,3.740000000000000000e+02
5.508611920234980062e+02,4.487495939998298127e+02,4.863391089016804472e+02,5.094394561021617847e+02,3.939671799551870208e+02,4.179677282360862591e+02,1.241071228849352337e+03,4.503516755962373281e+02,9.446745872497558594e+00,-7.649186849594116211e-01,-1.338607788085937500e+00,3.750000000000000000e+02
4.156499424775247462e+02,5.769390778573579155e+02,5.744789118660919485e+02,5.273335722624615300e+02,4.650560773935649195e+02,5.454011347643827321e+02,1.054236048609338468e+03,5.755644249270299042e+02,9.446745872497558594e+00,-7.649186849594116211e-01,-1.338607788085937500e+00,3.760000000000000000e+02
3.975381294943945250e+02,5.226022801982799137e+02,6.059283726711000782e+02,5.825700557869568001e+02,4.955030220840853872e+02,5.323219453972415067e+02,1.039382097017369233e+03,5.684592771476127382e+02,9.446745872497558594e+00,-7.649186849594116211e-01,-1.338607788085937500e+00,3.770000000000000000e+02
5.180643377460801275e+02,3.566222522524840315e+02,5.340000633934032521e+02,5.961423775573639432e+02,4.433004169812556938e+02,3.982363182350600255e+02,1.207595574905601097e+03,4.390630928905920882e+02,9.446745872497558594e+00,-7.649186849594116211e-01,-1.338607788085937500e+00,3.780000000000000000e+02
6.077384927639068337e+02,3.057264127424568869e+02,4.535969429715187289e+02,5.475370248929684749e+02,3.796509346177044790e+02,3.291515617910554283e+02,1.316625096219242550e+03,3.658631926852685865e+02,9.446745872497558594e+00,-7.649186849594116211e-01,-1.338607788085937500e+00,3.790000000000000000e+02
5.414733647963439580e+02,4.384150953270836908e+02,4.710919733780974639e+02,5.019970081587380264e+02,3.909732453244505450e+02,4.188628875971626258e+02,1.205445432200096548e+03,4.486127054923563264e+02,9.446745872497558594e+00,-7.649186849594116211e-01,-1.338607788085937500e+00,3.800000000000000000e+02
4.109686147593311034e+02,5.698149878335534595e+02,5.577352891029295279e+02,5.202098445089432062e+02,4.597085415478213690e+02,5.406950535952928476e+02,1.016835225407616235e+03,5.706866543054566137e+02,9.446745872497558594e+00,-7.649186849594116211e-01,-1.338607788085937500e+00,3.810000000000000000e+02
3.972675256323273061e+02,5.157336520514400036e+02,5.900431318102055229e+02,5.743730091185352649e+02,4.884779869836347643e+02,5.242171088138275081e+02,1.000681123578629922e+03,5.606788258526430582e+02,9.446745872497558594e+00,-7.649186849594116211e-01,-1.338607788085937500e+00,3.820000000000000000e+02
5.193097109858645126e+02,3.469171047813142650e+02,5.211165793826075969e+02,5.862080982199913706e+02,4.351921245555786300e+02,3.903799385252787033e+02,1.166276827023713849e+03,4.296800104088470107e+02,9.446745872497558594e+00,-7.649186849594116211e-01,-1.338607788085937500e+00,3.830000000000000000e+02
6.087940447835280793e+02,2.932954780858126469e+02,4.443966821603680728e+02,5.354373259252242860e+02,3.711329310342625831e+02,3.211599970418828889e+02,1.273749337759421906e+03,3.558870719067417667e+02,9.446745872497558594e+00,-7.649186849594116211e-01,-1.338607788085937500e+00,3.840000000000000000e+02
5.394196381678193575e+02,4.294286467089550570e+02,4.632212015447876183e+02,4.891813769348445931e+02,3.816860632331954548e+02,4.088899543906882172e+02,1.160809827488206793e+03,4.383098445115319919e+02,9.446745872497558594e+00,-7.649186849594116211e-01,-1.338607788085937500e+00,3.850000000000000000e+02
4.026666843588318443e+02,5.709992445955067524e+02,5.482631835939027951e+02,5.091871518050829764e+02,4.475912393339094706e+02,5.293047463320035604e+02,9.698732361444854178e+02,5.596426188087643823e+02,9.446745872497558594e+00,-7.649186849594116211e-01,-1.338607788085937500e+00,3.860000000000000000e+02
3.830224433572730049e+02,5.269123293555603595e+02,5.799118073716163053e+02,5.654790070475282846e+02,4.729916012448229594e+02,5.131755406257288996e+02,9.514989671369548887e+02,5.489126212752598803e+02,9.446745872497558594e+00,-7.649186849594116211e-01,-1.338607788085937500e+00,3.870000000000000000e+02
5.041210260180232581e+02,3.617775056736936676e+02,5.144094230011469335e+02,5.777194236313953297e+02,4.195825645433724276e+02,3.800639291409170255e+02,1.118097229257109575e+03,4.184408519503922435e+02,9.446745872497558594e+00,-7.649186849594116211e-01,-1.338607788085937500e+00,3.880000000000000000e+02
5.957710460997477639e+02,3.069894307573777041e+02,4.432271531401929678e+02,5.268802976202350692e+02,3.592096267336237361e+02,3.117496268177783350e+02,1.226737503918091534e+03,3.463915585441718576e+02,9.446745872497558594e+00,-9.179025292396545410e-01,-1.262115836143493652e+00,3.890000000000000000e+02
5.290842872502689715e+02,4.413412975088867825e+02,4.655529888487726566e+02,4.813659258147090441e+02,3.736328269736404764e+02,4.015513462241360685e+02,1.114899325196602149e+03,4.301704900228505721e+02,9.446745872497558594e+00,-9.179025292396545410e-01,-1.262115836143493652e+00,3.900000000000000000e+02
3.949345536421897123e+02,5.808975107505175401e+02,5.512543491214892128e+02,5.022843131150948466e+02,4.416736498389072949e+02,5.251636764594441047e+02,9.253811326171562541e+02,5.525570846545815584e+02,9.446745872497558594e+00,-9.179025292396545410e-01,-1.262115836143493652e+00,3.910000000000000000e+02
3.780386392366199289e+02,5.323476708075977513e+02,5.824786882862827042e+02,5.596888766975316685e+02,4.685439200482942397e+02,5.116448007021826925e+02,9.092352101145952474e+02,5.443163920489751035e+02,9.446745872497558594e+00,-9.179025292396545410e-01,-1.262115836143493652e+00,3.920000000000000000e+02
