F3,F4,C3,C4,P3,P4,Cz,Pz,Accel_x,Accel_y,Accel_z,Sample
-3.001332515850663185e-11,1.955413608811795712e-11,-1.045918907038867474e-11,1.637090463191270828e-11,1.637090463191270828e-11,3.228706191293895245e-11,-2.000888343900442123e-11,1.114131009671837091e-11,9.523238182067871094e+00,-6.501809358596801758e-01,-1.032640218734741211e+00,2.000000000000000000e+00
8.481584597636674516e+01,-3.352777002767156773e+02,-3.342210028456563577e+02,-2.173191178433589812e+02,-3.698070236345847661e+02,-3.275035829796454436e+02,-2.648169686423962048e+02,-2.521894504139088440e+02,9.523238182067871094e+00,-6.501809358596801758e-01,-1.032640218734741211e+00,3.000000000000000000e+00
1.647462746555343074e+02,-7.934801689277878722e+02,-6.591195670792560577e+02,-3.478584086619707705e+02,-7.061787151578444082e+02,-7.311616261469423534e+02,-4.952637968437747986e+02,-5.972676663859620021e+02,9.523238182067871094e+00,-6.501809358596801758e-01,-1.032640218734741211e+00,4.000000000000000000e+00
2.381916331407837788e+02,-1.296899679303606945e+03,-9.911161151776966562e+02,-4.481883637831701890e+02,-1.029965780215750101e+03,-1.179291358308850704e+03,-8.861354188140958286e+02,-1.000773864015996878e+03,9.523238182067871094e+00,-6.501809358596801758e-01,-1.032640218734741211e+00,5.000000000000000000e+00
1.429762569098325002e+02,-1.615568194127328979e+03,-1.284487968450275730e+03,-5.964346887372166748e+02,-1.325482415428267814e+03,-1.511263229783261977e+03,-1.582571228721589250e+03,-1.293102047673306743e+03,9.523238182067871094e+00,-6.501809358596801758e-01,-1.032640218734741211e+00,6.000000000000000000e+00
-2.853938240455290725e+02,-1.659468294923141457e+03,-1.434270638149862179e+03,-7.380288517690592016e+02,-1.512485740959943314e+03,-1.614358578221136895e+03,-2.332913547531375571e+03,-1.359624533936899752e+03,9.523238182067871094e+00,-6.501809358596801758e-01,-1.032640218734741211e+00,7.000000000000000000e+00
-9.133459084696037280e+02,-1.636176188504775382e+03,-1.442667305047090395e+03,-7.723236360519499613e+02,-1.579546618349338132e+03,-1.608021256771137587e+03,-2.971006806168394633e+03,-1.320041998590157846e+03,9.523238182067871094e+00,-6.501809358596801758e-01,-1.032640218734741211e+00,8.000000000000000000e+00
-1.458357633469753182e+03,-1.800839649780903528e+03,-1.463142533757224328e+03,-7.214194879180934095e+02,-1.638807810187881614e+03,-1.720355104814037077e+03,-3.814098109085193755e+03,-1.400343405815644473e+03,9.523238182067871094e+00,-6.501809358596801758e-01,-1.032640218734741211e+00,9.000000000000000000e+00
-1.921561311279064739e+03,-2.105530861578513850e+03,-1.591516951198185780e+03,-6.982321798958373620e+02,-1.770745014987254081e+03,-1.972557651980495393e+03,-5.068284613178706422e+03,-1.622595747233278189e+03,9.523238182067871094e+00,-6.501809358596801758e-01,-1.032640218734741211e+00,1.000000000000000000e+01
-2.515816370326980177e+03,-2.266754036202069983e+03,-1.726523922801296976e+03,-7.446909150791198044e+02,-1.911483606401161524e+03,-2.147654057740357530e+03,-6.241842509024460014e+03,-1.771394237953422817e+03,9.523238182067871094e+00,-6.501809358596801758e-01,-1.032640218734741211e+00,1.100000000000000000e+01
-3.270920132680910228e+03,-2.171389284596420111e+03,-1.727473549446090828e+03,-7.864641952292640781e+02,-1.958908041563072857e+03,-2.107656998438056235e+03,-6.822129085478360139e+03,-1.705907384833603601e+03,9.523238182067871094e+00,-6.501809358596801758e-01,-1.032640218734741211e+00,1.200000000000000000e+01
-4.111042463704823604e+03,-2.031530790632649769e+03,-1.618084096686795419e+03,-7.394592265377593776e+02,-1.912403817982453802e+03,-1.983069128871950852e+03,-7.179598728085236871e+03,-1.557672994604194400e+03,9.523238182067871094e+00,-6.501809358596801758e-01,-1.032640218734741211e+00,1.300000000000000000e+01
-5.038920514269619161e+03,-2.090450537610182437e+03,-1.549013501340033599e+03,-6.230268194667903572e+02,-1.868256176425708190e+03,-1.988075688070784054e+03,-7.838634599989134585e+03,-1.544883289899055626e+03,9.523238182067871094e+00,-6.501809358596801758e-01,-1.032640218734741211e+00,1.400000000000000000e+01
-5.873812647294938870e+03,-2.309636982561433797e+03,-1.600196205789851092e+03,-5.458836748027454178e+02,-1.910328292030726516e+03,-2.148665519611489799e+03,-8.376001912976005769e+03,-1.685885711299496961e+03,9.523238182067871094e+00,-6.501809358596801758e-01,-1.032640218734741211e+00,1.500000000000000000e+01
-6.283332250762365220e+03,-2.423041493508349049e+03,-1.676334941568700970e+03,-5.573398097475273971e+02,-1.997330864972769632e+03,-2.268631394014227681e+03,-8.455639578201393306e+03,-1.779672604617559728e+03,9.523238182067871094e+00,-6.501809358596801758e-01,-1.032640218734741211e+00,1.600000000000000000e+01
-6.308551661793130734e+03,-2.276358371970002281e+03,-1.625562831032789518e+03,-5.607012497495286425e+02,-1.990915607429720694e+03,-2.170669812612383339e+03,-8.992176790981460726e+03,-1.667239151732085475e+03,9.523238182067871094e+00,-6.501809358596801758e-01,-1.032640218734741211e+00,1.700000000000000000e+01
-6.278984866654962389e+03,-2.057091054854733102e+03,-1.460963987159405860e+03,-4.586516850665727816e+02,-1.868730563775888641e+03,-1.964029055443950710e+03,-1.035368439265738925e+04,-1.462506195031186053e+03,9.523238182067871094e+00,-6.501809358596801758e-01,-1.032640218734741211e+00,1.800000000000000000e+01
-6.350908465629758211e+03,-2.072756922554927769e+03,-1.366300621713998680e+03,-3.143904976347671436e+02,-1.797931918104105307e+03,-1.936316161190192361e+03,-1.111402660057708272e+04,-1.420385022840961255e+03,9.523238182067871094e+00,-6.501809358596801758e-01,-1.032640218734741211e+00,1.900000000000000000e+01
-6.738363040865753646e+03,-2.289774069109683296e+03,-1.415864452613379854e+03,-2.385270098092562421e+02,-1.857772492966866366e+03,-2.108377121257952695e+03,-1.089724238774963851e+04,-1.558525511756520928e+03,9.523238182067871094e+00,-6.501809358596801758e-01,-1.032640218734741211e+00,2.000000000000000000e+01
-7.602877393873830442e+03,-2.344149395499394814e+03,-1.447286480424838146e+03,-2.111818242084111716e+02,-1.886748486937156940e+03,-2.162504879824947693e+03,-1.160064355641132533e+04,-1.607578947412387834e+03,9.523238182067871094e+00,-6.501809358596801758e-01,-1.032640218734741211e+00,2.100000000000000000e+01
-8.185007580558697555e+03,-2.112475559003338276e+03,-1.335601753382701872e+03,-1.610331313011413386e+02,-1.789576597560047276e+03,-1.967096716206125620e+03,-1.338899554315009118e+04,-1.432946664240538894e+03,9.523238182067871094e+00,-6.501809358596801758e-01,-1.032640218734741211e+00,2.200000000000000000e+01
-7.706174651008121145e+03,-1.913918237500310170e+03,-1.187931004323341540e+03,-8.748605850463718525e+01,-1.705922908617609437e+03,-1.795233393003270749e+03,-1.390738477609516121e+04,-1.242779339867603312e+03,9.523238182067871094e+00,-6.501809358596801758e-01,-1.032640218734741211e+00,2.300000000000000000e+01
-7.370840266087270720e+03,-1.965645733776203315e+03,-1.119945270934573955e+03,1.602959827391509862e+01,-1.690033091111931981e+03,-1.817801565345869221e+03,-1.357162316199852830e+04,-1.224122576993993107e+03,9.523238182067871094e+00,-6.501809358596801758e-01,-1.032640218734741211e+00,2.400000000000000000e+01
-8.684785957192474598e+03,-2.069874879786766996e+03,-1.088151712040985785e+03,1.637103258597055628e+02,-1.621886422647278096e+03,-1.854806386390234366e+03,-1.521083248577612358e+04,-1.276840816406841213e+03,9.523238182067871094e+00,-6.501809358596801758e-01,-1.032640218734741211e+00,2.500000000000000000e+01
-1.005974946192950301e+04,-2.039976678483626756e+03,-1.061864694943247514e+03,2.450723585528694457e+02,-1.560162982828141821e+03,-1.815565474675609266e+03,-1.723178505584810046e+04,-1.265565857236112834e+03,9.523238182067871094e+00,-6.501809358596801758e-01,-1.032640218734741211e+00,2.600000000000000000e+01
-9.304253330811056003e+03,-1.944280149180470289e+03,-1.052328292697678762e+03,1.883029632811013698e+02,-1.639138057653856322e+03,-1.802881412826433689e+03,-1.620476274519984509e+04,-1.194362145606955664e+03,9.523238182067871094e+00,-6.501809358596801758e-01,-1.032640218734741211e+00,2.700000000000000000e+01
-8.551984297432290987e+03,-1.789748733048396389e+03,-9.327459664904367855e+02,2.242218003764293144e+02,-1.608298216130759101e+03,-1.693428725144798136e+03,-1.578833457285635086e+04,-1.036600039818602227e+03,9.523238182067871094e+00,-6.501809358596801758e-01,-1.032640218734741211e+00,2.800000000000000000e+01
-1.064580379710908528e+04,-1.558302184564036907e+03,-6.513682428660736150e+02,5.312839480666611962e+02,-1.241983431950058048e+03,-1.370772652316353742e+03,-2.069173986730994875e+04,-8.099512573278732361e+02,9.523238182067871094e+00,-6.501809358596801758e-01,-1.032640218734741211e+00,2.900000000000000000e+01
-1.185517761714156586e+04,-1.611357893075261245e+03,-5.873845980007261005e+02,7.050236737637119404e+02,-1.125571242525066054e+03,-1.362600804948552650e+03,-2.298360820866232461e+04,-8.364840148571486225e+02,9.523238182067871094e+00,-6.501809358596801758e-01,-1.032640218734741211e+00,3.000000000000000000e+01
-6.151622712925165615e+03,-2.324203594995712592e+03,-1.125504262862913265e+03,2.188672692396676212e+02,-2.008281242974586348e+03,-2.273619744093225563e+03,-1.062560861296884832e+04,-1.394600235750744105e+03,9.523238182067871094e+00,-6.501809358596801758e-01,-1.032640218734741211e+00,3.100000000000000000e+01
3.988780202627046037e+03,-3.299598629370144408e+03,-1.924161879878398850e+03,-6.465167446634309272e+02,-3.431255559677301335e+03,-3.610502981283417284e+03,1.082520579097093650e+04,-2.132117893434542566e+03,9.484992027282714844e+00,-5.354431271553039551e-01,-1.032640218734741211e+00,3.200000000000000000e+01
9.818877589795309177e+03,-3.754176880038477975e+03,-2.266221755197386301e+03,-1.069865624561959521e+03,-4.160650479730426014e+03,-4.260014712494997184e+03,2.284999004843345756e+04,-2.431359713456722602e+03,9.484992027282714844e+00,-5.354431271553039551e-01,-1.032640218734741211e+00,3.300000000000000000e+01
9.003299497988267831e+03,-3.646783325845426134e+03,-2.082283844445657451e+03,-8.593459007923318040e+02,-3.949363887912094015e+03,-4.083756370631102072e+03,2.030375958775092658e+04,-2.295152846458083786e+03,9.484992027282714844e+00,-5.354431271553039551e-01,-1.032640218734741211e+00,3.400000000000000000e+01
7.333483535070990911e+03,-3.575230065574698529e+03,-1.924402140092171749e+03,-5.974586012261477208e+02,-3.674198939538307513e+03,-3.906421143656643835e+03,1.545757528122591248e+04,-2.220321429227285080e+03,9.484992027282714844e+00,-5.354431271553039551e-01,-1.032640218734741211e+00,3.500000000000000000e+01
8.204614489540177601e+03,-3.680732929044905177e+03,-2.001498654331592206e+03,-6.333200713573251051e+02,-3.785944441695606201e+03,-4.039601996295162280e+03,1.610272824968868372e+04,-2.310166553204432603e+03,9.484992027282714844e+00,-5.354431271553039551e-01,-1.032640218734741211e+00,3.600000000000000000e+01
9.053834076913537501e+03,-3.580304714953726034e+03,-1.987473050090750803e+03,-6.957560116910381112e+02,-3.849518339760772051e+03,-4.015107533311665975e+03,1.715895274323344711e+04,-2.230251730495992888e+03,9.484992027282714844e+00,-5.354431271553039551e-01,-1.032640218734741211e+00,3.700000000000000000e+01
8.253467729109972424e+03,-3.273874645801411134e+03,-1.755489826606903534e+03,-5.519941722939263400e+02,-3.620583016636561297e+03,-3.707172583172619852e+03,1.464868090618541282e+04,-1.954495110764451510e+03,9.484992027282714844e+00,-5.354431271553039551e-01,-1.032640218734741211e+00,3.800000000000000000e+01
7.751953881585552153e+03,-3.193838088188371330e+03,-1.591562823666810573e+03,-3.671755619647599360e+02,-3.445088714046506539e+03,-3.567678378003078251e+03,1.235718875756438138e+04,-1.838373722811579455e+03,9.484992027282714844e+00,-5.354431271553039551e-01,-1.032640218734741211e+00,3.900000000000000000e+01
8.425517454169304983e+03,-3.386394650351046494e+03,-1.635804779680039701e+03,-3.096962824019105938e+02,-3.505196973354386500e+03,-3.725110683455948219e+03,1.269824271751638662e+04,-1.964127854129807247e+03,9.484992027282714844e+00,-5.354431271553039551e-01,-1.032640218734741211e+00,4.000000000000000000e+01
8.757922483364465734e+03,-3.430876597212500201e+03,-1.677042447168893887e+03,-3.041436860275098297e+02,-3.547784237954096170e+03,-3.786950080119670929e+03,1.264373690296160203e+04,-2.016288376316018912e+03,9.484992027282714844e+00,-5.354431271553039551e-01,-1.032640218734741211e+00,4.100000000000000000e+01
8.268902115318913275e+03,-3.172722555417071817e+03,-1.557422415602947240e+03,-2.500675138659648837e+02,-3.423573471854949275e+03,-3.572693639172477560e+03,1.049712582181272228e+04,-1.830272872875880466e+03,9.484992027282714844e+00,-5.354431271553039551e-01,-1.032640218734741211e+00,4.200000000000000000e+01
8.043222965886946440e+03,-2.925052380439659828e+03,-1.380266756357010081e+03,-1.553365825730675169e+02,-3.276623343141341593e+03,-3.349454555874989182e+03,8.682032971653203276e+03,-1.609506914962013298e+03,9.484992027282714844e+00,-5.354431271553039551e-01,-1.032640218734741211e+00,4.300000000000000000e+01
8.312990654785126026e+03,-2.930441908683977999e+03,-1.287132622562610550e+03,-4.758752727372257141e+01,-3.212789028283960306e+03,-3.331751327702517301e+03,8.581434021232333180e+03,-1.565694647249124273e+03,9.484992027282714844e+00,-5.354431271553039551e-01,-1.032640218734741211e+00,4.400000000000000000e+01
8.414279164589712309e+03,-3.055974270931599676e+03,-1.283580015701061711e+03,4.424313214069388778e+01,-3.191244073055146600e+03,-3.420516670790520948e+03,8.180056273136063282e+03,-1.648734093818149177e+03,9.484992027282714844e+00,-5.354431271553039551e-01,-1.032640218734741211e+00,4.500000000000000000e+01
8.307917728008294944e+03,-3.049336668432291845e+03,-1.285157042326911551e+03,7.869508134549255374e+01,-3.169556804881629887e+03,-3.425410864824328655e+03,6.228907717773287004e+03,-1.668068217420125166e+03,9.484992027282714844e+00,-5.354431271553039551e-01,-1.032640218734741211e+00,4.600000000000000000e+01
8.302400509901053738e+03,-2.852511794430479313e+03,-1.209112261918651939e+03,8.491871296030944904e+01,-3.117104831832462423e+03,-3.280996102291760508e+03,4.833704799765517237e+03,-1.528168083829389388e+03,9.484992027282714844e+00,-5.354431271553039551e-01,-1.032640218734741211e+00,4.700000000000000000e+01
8.270264712433694513e+03,-2.638707917175746388e+03,-1.057747945689494145e+03,1.543081114774647631e+02,-3.004348220231531286e+03,-3.083247895615531888e+03,5.471262977188858713e+03,-1.328089270682310826e+03,9.484992027282714844e+00,-5.354431271553039551e-01,-1.032640218734741211e+00,4.800000000000000000e+01
8.140531374126165247e+03,-2.606940067892875504e+03,-9.409265903161383449e+02,2.901171253252650786e+02,-2.887942289268823060e+03,-3.000661223776055976e+03,5.362879197621734420e+03,-1.250371260068019183e+03,9.484992027282714844e+00,-5.354431271553039551e-01,-1.032640218734741211e+00,4.900000000000000000e+01
8.174916783488182773e+03,-2.727779805407361891e+03,-9.398272956236842219e+02,3.873213854243983860e+02,-2.859161521402897051e+03,-3.070095054221204464e+03,2.190550732656092350e+03,-1.325268418036662297e+03,9.484992027282714844e+00,-5.354431271553039551e-01,-1.032640218734741211e+00,5.000000000000000000e+01
8.342994416940488009e+03,-2.753875168965363628e+03,-9.723588917037225201e+02,3.978890975101332970e+02,-2.880141423396409209e+03,-3.112375977543365934e+03,4.298645429351140592e+02,-1.368300873946177944e+03,9.484992027282714844e+00,-5.354431271553039551e-01,-1.032640218734741211e+00,5.100000000000000000e+01
8.305279393505274129e+03,-2.553812566334879648e+03,-8.998633192013048756e+02,4.015102911627382127e+02,-2.826507484642651434e+03,-2.971775088815275922e+03,6.226084030699448704e+03,-1.230164258246972167e+03,9.484992027282714844e+00,-5.354431271553039551e-01,-1.032640218734741211e+00,5.200000000000000000e+01
8.075076674202339746e+03,-2.316354306559919678e+03,-7.337515117966577236e+02,4.795271974775669150e+02,-2.686637013521204608e+03,-2.756117215347973342e+03,1.673775446634078253e+04,-1.018354846232998625e+03,9.446745872497558594e+00,-5.736890435218811035e-01,-1.109132170677185059e+00,5.300000000000000000e+01
7.991149267465170851e+03,-2.290946205875386568e+03,-6.197545718575941009e+02,6.030236686095026926e+02,-2.577151699840976107e+03,-2.684905113016768610e+03,2.252151438626349045e+04,-9.473478960867403202e+02,9.446745872497558594e+00,-5.736890435218811035e-01,-1.109132170677185059e+00,5.400000000000000000e+01
8.127288086280734206e+03,-2.430353208180496495e+03,-6.272262067295973793e+02,6.835389161077869176e+02,-2.563878857952978706e+03,-2.768720000968676686e+03,2.073194036262709415e+04,-1.031827875523309785e+03,9.446745872497558594e+00,-5.736890435218811035e-01,-1.109132170677185059e+00,5.500000000000000000e+01
8.223656063053011167e+03,-2.460042999366469758e+03,-6.563450223030474717e+02,6.936171056530051828e+02,-2.575788435903566551e+03,-2.800270956696145277e+03,1.759256646713001101e+04,-1.069805746057314991e+03,9.446745872497558594e+00,-5.736890435218811035e-01,-1.109132170677185059e+00,5.600000000000000000e+01
8.114761206738723558e+03,-2.264317515308048769e+03,-5.819810119926476091e+02,6.989705498631742557e+02,-2.514475057134046438e+03,-2.650279121992844466e+03,1.743954323621841468e+04,-9.280162461043234998e+02,9.446745872497558594e+00,-5.736890435218811035e-01,-1.109132170677185059e+00,5.700000000000000000e+01
7.927743275617993277e+03,-2.040248278505328926e+03,-4.247868650885488933e+02,7.692375042866406147e+02,-2.386401240948264785e+03,-2.440508628468223378e+03,1.784470569046189848e+04,-7.234101763838864372e+02,9.446745872497558594e+00,-5.736890435218811035e-01,-1.109132170677185059e+00,5.800000000000000000e+01
7.868517340317440357e+03,-2.019967718963336665e+03,-3.202892366859939557e+02,8.842035248665811196e+02,-2.287600363197541810e+03,-2.370391273869495762e+03,1.637853771467476872e+04,-6.583535044020916303e+02,9.446745872497558594e+00,-5.736890435218811035e-01,-1.109132170677185059e+00,5.900000000000000000e+01
7.963696005640913427e+03,-2.154166827618505977e+03,-3.331154618485854826e+02,9.596769905161077077e+02,-2.273409003367106379e+03,-2.446346923972066634e+03,1.465354487178594354e+04,-7.432836380877836291e+02,9.446745872497558594e+00,-5.736890435218811035e-01,-1.109132170677185059e+00,6.000000000000000000e+01
8.050798534746650148e+03,-2.184527829281000322e+03,-3.690945954229875952e+02,9.615940185061363081e+02,-2.286164376407463351e+03,-2.477679541946267364e+03,1.435241097716998775e+04,-7.848642267736720441e+02,9.446745872497558594e+00,-5.736890435218811035e-01,-1.109132170677185059e+00,6.100000000000000000e+01
7.961682455183297861e+03,-1.994422878356171623e+03,-3.019719443682890869e+02,9.570703009714311520e+02,-2.229239342399931957e+03,-2.333843633271778344e+03,1.446991574966190092e+04,-6.492339908036676661e+02,9.446745872497558594e+00,-5.736890435218811035e-01,-1.109132170677185059e+00,6.200000000000000000e+01
7.771714584876855042e+03,-1.771142257836040699e+03,-1.496083957376990838e+02,1.021004618759428922e+03,-2.102642377906001911e+03,-2.127803730821347472e+03,1.376236738329204309e+04,-4.484487698844145598e+02,9.446745872497558594e+00,-5.736890435218811035e-01,-1.109132170677185059e+00,6.300000000000000000e+01
7.694486230018732385e+03,-1.747749377904201992e+03,-4.781187908127435549e+01,1.133093850240352367e+03,-2.002200769890614538e+03,-2.060796028994729568e+03,1.253723021056190737e+04,-3.863260392899667295e+02,9.446745872497558594e+00,-5.736890435218811035e-01,-1.109132170677185059e+00,6.400000000000000000e+01
7.786329322574301841e+03,-1.881086838151394204e+03,-6.130929856868579009e+01,1.205463984325050205e+03,-1.987301489412867340e+03,-2.144288222134714943e+03,1.160984266714256228e+04,-4.776589535814657665e+02,9.446745872497558594e+00,-5.736890435218811035e-01,-1.109132170677185059e+00,6.500000000000000000e+01
7.869315543910174711e+03,-1.911280738765612568e+03,-9.559633655385573547e+01,1.203415477656988969e+03,-1.999822587573042256e+03,-2.183632626846848780e+03,1.109611845953153352e+04,-5.280656949124097537e+02,9.446745872497558594e+00,-5.736890435218811035e-01,-1.109132170677185059e+00,6.600000000000000000e+01
7.777435851209685097e+03,-1.721894712385160346e+03,-2.929170192039964604e+01,1.192945685417117147e+03,-1.944959095752234134e+03,-2.046744144909970601e+03,1.056543146896974213e+04,-4.020241422167100609e+02,9.446745872497558594e+00,-5.736890435218811035e-01,-1.109132170677185059e+00,6.700000000000000000e+01
7.585296575526409470e+03,-1.501317676568618936e+03,1.188790655486945980e+02,1.249576826453807826e+03,-1.822053310491220145e+03,-1.846525646458908341e+03,9.884369640278686347e+03,-2.092912785056134908e+02,9.446745872497558594e+00,-5.736890435218811035e-01,-1.109132170677185059e+00,6.800000000000000000e+01
7.504461520652196668e+03,-1.480609954232131258e+03,2.169603585722784374e+02,1.354526183382526142e+03,-1.725551388770809353e+03,-1.784387105597967093e+03,9.274801432673661111e+03,-1.524707592595309507e+02,9.446745872497558594e+00,-5.736890435218811035e-01,-1.109132170677185059e+00,6.900000000000000000e+01
7.591256620198754717e+03,-1.613386682396559081e+03,2.006198065190883426e+02,1.421140394434232803e+03,-1.714801612932282296e+03,-1.871395326722542450e+03,8.447384920818481987e+03,-2.465015774367402628e+02,9.446745872497558594e+00,-5.736890435218811035e-01,-1.109132170677185059e+00,7.000000000000000000e+01
7.669651941246434944e+03,-1.642290957541323678e+03,1.604217177794980671e+02,1.414244200280624227e+03,-1.731991721075846726e+03,-1.913420886543834968e+03,7.078208013910737463e+03,-2.983695174165907247e+02,9.446745872497558594e+00,-5.736890435218811035e-01,-1.109132170677185059e+00,7.100000000000000000e+01
7.574855757331191853e+03,-1.455485141332276726e+03,2.178895860632437689e+02,1.398079308839947771e+03,-1.681671734507060592e+03,-1.780075638566718226e+03,6.299253051570782191e+03,-1.746369076517412395e+02,9.446745872497558594e+00,-5.736890435218811035e-01,-1.109132170677185059e+00,7.200000000000000000e+01
7.380517491102929853e+03,-1.238808062149781563e+03,3.592096389463085870e+02,1.448026992782307843e+03,-1.562735443650266461e+03,-1.584638302406971889e+03,7.068792797782834896e+03,1.400701845833259540e+01,9.446745872497558594e+00,-5.736890435218811035e-01,-1.109132170677185059e+00,7.300000000000000000e+01
7.296222323578593205e+03,-1.218295716893078179e+03,4.534935563967655980e+02,1.547450562042536149e+03,-1.470420375489522030e+03,-1.526760322936661851e+03,7.258842044573750172e+03,6.644463741386744005e+01,9.446745872497558594e+00,-5.736890435218811035e-01,-1.109132170677185059e+00,7.400000000000000000e+01
7.378102160438622377e+03,-1.350457199643416971e+03,4.328367297458471512e+02,1.610850790684645290e+03,-1.464539708991180760e+03,-1.616632228383731672e+03,4.789007067254663525e+03,-3.057571803925520726e+01,9.446745872497558594e+00,-5.736890435218811035e-01,-1.109132170677185059e+00,7.500000000000000000e+01
7.452616369784309427e+03,-1.383431426440611631e+03,3.871362776212640711e+02,1.601761008524033969e+03,-1.486151811427767370e+03,-1.661705900181749257e+03,3.239635464832746038e+03,-8.518376818665547034e+01,9.446745872497558594e+00,-5.736890435218811035e-01,-1.109132170677185059e+00,7.600000000000000000e+01
7.356805818422096308e+03,-1.202888194973303598e+03,4.399937513591521565e+02,1.583103471105157041e+03,-1.438706451484923491e+03,-1.532331860388579571e+03,8.000920048182488244e+03,3.378570724261680880e+01,9.446745872497558594e+00,-5.736890435218811035e-01,-1.109132170677185059e+00,7.700000000000000000e+01
7.162297604115171453e+03,-9.894755553266945753e+02,5.764884281653080507e+02,1.629724027045680486e+03,-1.321274197531565278e+03,-1.339279746994582638e+03,1.685766201354808800e+04,2.169429972068282950e+02,9.523238182067871094e+00,-5.736890435218811035e-01,-1.032640218734741211e+00,7.800000000000000000e+01
7.075452327536676421e+03,-9.709201064901867539e+02,6.640703833189754732e+02,1.723915004994502851e+03,-1.229096174318459816e+03,-1.279993364975396162e+03,2.172181941124868172e+04,2.673056683590507419e+02,9.523238182067871094e+00,-5.736890435218811035e-01,-1.032640218734741211e+00,7.900000000000000000e+01
7.152836955842951284e+03,-1.107563487683963331e+03,6.378277927357557928e+02,1.780177546056894698e+03,-1.221671646030705233e+03,-1.366509463807453358e+03,2.015355484127160526e+04,1.720092713810922760e+02,9.523238182067871094e+00,-5.736890435218811035e-01,-1.032640218734741211e+00,8.000000000000000000e+01
7.223980491406464353e+03,-1.146536558186338425e+03,5.898815432015539955e+02,1.765125330881398440e+03,-1.242021897133979564e+03,-1.409627474660014286e+03,1.759570281023394637e+04,1.180205998203634863e+02,9.523238182067871094e+00,-5.736890435218811035e-01,-1.032640218734741211e+00,8.100000000000000000e+01
7.126636395494629141e+03,-9.718288266883268989e+02,6.398745226531700609e+02,1.744253576306512969e+03,-1.197013955390776573e+03,-1.280519822987786938e+03,1.781119008297978871e+04,2.335876063717907982e+02,9.523238182067871094e+00,-5.736890435218811035e-01,-1.032640218734741211e+00,8.200000000000000000e+01
6.930394034553385609e+03,-7.646086864406506720e+02,7.701874308380160983e+02,1.790391700981437225e+03,-1.085515558194264031e+03,-1.089405495775462896e+03,1.856406157808318676e+04,4.124141140319791248e+02,9.523238182067871094e+00,-5.736890435218811035e-01,-1.032640218734741211e+00,8.300000000000000000e+01
6.840818502563596667e+03,-7.504928221448215027e+02,8.524914964153767869e+02,1.882499279891579135e+03,-9.986880811494092995e+02,-1.034226590965640298e+03,1.764154395158911939e+04,4.603850756339761574e+02,9.523238182067871094e+00,-5.736890435218811035e-01,-1.032640218734741211e+00,8.400000000000000000e+01
6.915807617123846285e+03,-8.867864568179415983e+02,8.243897640099153250e+02,1.935148985270224330e+03,-9.942435187446794771e+02,-1.127192904876069861e+03,1.631646781653602193e+04,3.623341562538744256e+02,9.523238182067871094e+00,-5.736890435218811035e-01,-1.032640218734741211e+00,8.500000000000000000e+01
6.985729952518860046e+03,-9.243976662483723885e+02,7.737699299797445747e+02,1.915777645386366203e+03,-1.017125422860263370e+03,-1.177783164230861530e+03,1.583521636354648581e+04,3.029235448210392860e+02,9.523238182067871094e+00,-5.736890435218811035e-01,-1.032640218734741211e+00,8.600000000000000000e+01
6.888061634953639441e+03,-7.540922688561129235e+02,8.190706987608741656e+02,1.887588247238813437e+03,-9.742727817804438928e+02,-1.056366055820173642e+03,1.556059566041488688e+04,4.127721248128655134e+02,9.523238182067871094e+00,-5.736890435218811035e-01,-1.032640218734741211e+00,8.700000000000000000e+01
6.692052274616229624e+03,-5.559700052470791434e+02,9.482440725429723898e+02,1.921954916941995180e+03,-8.621952052253109287e+02,-8.729526476152984742e+02,1.511683054950908809e+04,5.880662567601027604e+02,9.523238182067871094e+00,-5.736890435218811035e-01,-1.032640218734741211e+00,8.800000000000000000e+01
6.602233957634782200e+03,-5.491101711538772179e+02,1.033497417623208094e+03,2.001914236018708380e+03,-7.734725104413507779e+02,-8.233826732363449992e+02,1.478235582155243537e+04,6.332370869239639433e+02,9.523238182067871094e+00,-5.736890435218811035e-01,-1.032640218734741211e+00,8.900000000000000000e+01
6.674806068538179716e+03,-6.891957779975125504e+02,1.004467634568925405e+03,2.047101774023318285e+03,-7.709201923962918954e+02,-9.176370085884118453e+02,1.414579317544905098e+04,5.315564682705607993e+02,9.523238182067871094e+00,-5.736890435218811035e-01,-1.032640218734741211e+00,9.000000000000000000e+01
6.740314582637482999e+03,-7.293620205169615929e+02,9.458983922804909525e+02,2.024421702449690201e+03,-8.005745590643366540e+02,-9.672885497336374101e+02,1.300950509422849427e+04,4.685312501801668077e+02,9.523238182067871094e+00,-5.736890435218811035e-01,-1.032640218734741211e+00,9.100000000000000000e+01
6.638343793319690121e+03,-5.593261303561764635e+02,9.824551158118538297e+02,1.993701369896198230e+03,-7.651055443166246732e+02,-8.466805151388109607e+02,1.238314796453882445e+04,5.745749607809725603e+02,9.523238182067871094e+00,-5.736890435218811035e-01,-1.032640218734741211e+00,9.200000000000000000e+01
6.438627778752390441e+03,-3.573053775020778176e+02,1.105849213942140523e+03,2.026096526478429951e+03,-6.582153845132852439e+02,-6.651379305398850192e+02,1.258606893031781146e+04,7.443137262732780073e+02,9.523238182067871094e+00,-5.736890435218811035e-01,-1.032640218734741211e+00,9.300000000000000000e+01
6.344735572412775582e+03,-3.452447512796213687e+02,1.186126145895078025e+03,2.105503756347125091e+03,-5.730951170773641934e+02,-6.148502535896075187e+02,1.229290066612861483e+04,7.834057727381668883e+02,9.523238182067871094e+00,-5.736890435218811035e-01,-1.032640218734741211e+00,9.400000000000000000e+01
6.414793051233245933e+03,-4.835169968427537697e+02,1.154264311444611394e+03,2.148853642442371893e+03,-5.722755180705041766e+02,-7.066158770874924357e+02,1.101315232928555452e+04,6.777726078448999942e+02,9.523238182067871094e+00,-5.736890435218811035e-01,-1.032640218734741211e+00,9.500000000000000000e+01
6.482933446393941267e+03,-5.270156381187662191e+02,1.098590020168399860e+03,2.120385831029921974e+03,-6.010923990352043802e+02,-7.564029946726127491e+02,1.008909430558994973e+04,6.118630560779110965e+02,9.523238182067871094e+00,-5.736890435218811035e-01,-1.032640218734741211e+00,9.600000000000000000e+01
6.387251485545417381e+03,-3.644484615120572926e+02,1.138707138763973489e+03,2.082841171085367932e+03,-5.654903768767067049e+02,-6.386368465571454180e+02,1.004100092640866205e+04,7.135198037856198425e+02,9.523238182067871094e+00,-5.736890435218811035e-01,-1.032640218734741211e+00,9.700000000000000000e+01
6.191073590843274360e+03,-1.702943855874475503e+02,1.257098072803417381e+03,2.112036214646207554e+03,-4.636770611585129700e+02,-4.582247470992990657e+02,9.727493611009223969e+03,8.789719673879712900e+02,9.523238182067871094e+00,-5.736890435218811035e-01,-1.032640218734741211e+00,9.800000000000000000e+01
6.094762929158321640e+03,-1.609118236870299370e+02,1.325216095957437574e+03,2.191524475760304085e+03,-3.874743097351044980e+02,-4.065242832666456252e+02,8.919519833641919831e+03,9.167623035241335856e+02,9.523238182067871094e+00,-5.736890435218811035e-01,-1.032640218734741211e+00,9.900000000000000000e+01
6.159175298614045460e+03,-2.957407267684118324e+02,1.283405607817955570e+03,2.235031735777942231e+03,-3.935901436295223448e+02,-4.990616003022714722e+02,8.518534723478487649e+03,8.107053177996285740e+02,9.523238182067871094e+00,-5.736890435218811035e-01,-1.032640218734741211e+00,1.000000000000000000e+02
6.221711063300776004e+03,-3.358032365184392347e+02,1.222216413139576616e+03,2.206331367816585043e+03,-4.252992214870225780e+02,-5.546812958206487565e+02,7.988692507240697523e+03,7.413523685222276072e+02,9.523238182067871094e+00,-5.736890435218811035e-01,-1.032640218734741211e+00,1.010000000000000000e+02
6.121765896658405836e+03,-1.739859109960975729e+02,1.256613763269188894e+03,2.169017633696450503e+03,-3.914445913406298132e+02,-4.444454161259532157e+02,6.398183248166520571e+03,8.380154702506388276e+02,9.523238182067871094e+00,-5.736890435218811035e-01,-1.032640218734741211e+00,1.020000000000000000e+02
5.924225224839698058e+03,1.817697317287365877e+01,1.369504606093757502e+03,2.197522176065001076e+03,-2.914971070484918982e+02,-2.683711687375853217e+02,5.854675865406079538e+03,1.001531774987438439e+03,9.523238182067871094e+00,-5.736890435218811035e-01,-1.032640218734741211e+00,1.030000000000000000e+02
5.830167395237588607e+03,2.606346220923478540e+01,1.436778750716724062e+03,2.274068071039463575e+03,-2.152422887247660128e+02,-2.170448096848447221e+02,9.277516076314333986e+03,1.040870438341960380e+03,9.523238182067871094e+00,-5.736890435218811035e-01,-1.032640218734741211e+00,1.040000000000000000e+02
5.897717425932249171e+03,-1.136831092881377572e+02,1.397352892653274466e+03,2.313597131770518899e+03,-2.195801933859474957e+02,-3.087534731217447188e+02,1.484608112375957899e+04,9.364266426379995210e+02,9.446745872497558594e+00,-5.354431271553039551e-01,-1.070886254310607910e+00,1.050000000000000000e+02
5.961181697539335801e+03,-1.628379174600081569e+02,1.336656609911489795e+03,2.280698872892864529e+03,-2.514514095165279741e+02,-3.650839565195913110e+02,1.764666206986833276e+04,8.672090312550963063e+02,9.446745872497558594e+00,-5.354431271553039551e-01,-1.070886254310607910e+00,1.060000000000000000e+02
5.860393056827108012e+03,-8.633395033401939145e+00,1.369740956453790204e+03,2.237658877217551890e+03,-2.209016240704468146e+02,-2.585314982990075805e+02,1.673929408243435319e+04,9.635513873675736249e+02,9.446745872497558594e+00,-5.354431271553039551e-01,-1.070886254310607910e+00,1.070000000000000000e+02
5.661626725231156342e+03,1.799399077883113023e+02,1.482716811680167666e+03,2.258855887414962126e+03,-1.242028938855050910e+02,-8.959544090875601796e+01,1.552897195810562516e+04,1.126458273402297891e+03,9.446745872497558594e+00,-5.354431271553039551e-01,-1.070886254310607910e+00,1.080000000000000000e+02
5.565256099515374444e+03,1.849910379316254421e+02,1.550490169019365567e+03,2.329134635523347242e+03,-4.942068291009900349e+01,-4.769253611226463363e+01,1.560026109354591608e+04,1.164153829494172442e+03,9.446745872497558594e+00,-5.354431271553039551e-01,-1.070886254310607910e+00,1.090000000000000000e+02
5.629303784804216775e+03,4.272003455237654634e+01,1.508429230948788245e+03,2.365346931112197126e+03,-5.608206662929865161e+01,-1.479243719935220724e+02,1.520756503518074351e+04,1.057366339956153752e+03,9.446745872497558594e+00,-5.354431271553039551e-01,-1.070886254310607910e+00,1.100000000000000000e+02
5.690414827213739045e+03,-5.714928260002807292e+00,1.441451340179824001e+03,2.331360735773656415e+03,-9.285128983756658272e+01,-2.090995916986526026e+02,1.379633063585531090e+04,9.853796904421856198e+02,9.446745872497558594e+00,-5.354431271553039551e-01,-1.070886254310607910e+00,1.110000000000000000e+02
5.589553152569921622e+03,1.503313122264044068e+02,1.466951487685902975e+03,2.287566971459236811e+03,-6.719273494946946812e+01,-1.039870065674365378e+02,1.306247861721374284e+04,1.077176202941343945e+03,9.446745872497558594e+00,-5.354431271553039551e-01,-1.070886254310607910e+00,1.120000000000000000e+02
5.391022677550900880e+03,3.363037018132965841e+02,1.573777563624692448e+03,2.306614295500303342e+03,2.723636356309179973e+01,6.510173623212745042e+01,1.336376659525491050e+04,1.233359534347504450e+03,9.446745872497558594e+00,-5.354431271553039551e-01,-1.070886254310607910e+00,1.130000000000000000e+02
5.293618232821225320e+03,3.345724581621777816e+02,1.638935580498306990e+03,2.372789784168756341e+03,1.014785671399722560e+02,1.085069555844927436e+02,1.310675217657641042e+04,1.264880097987665522e+03,9.446745872497558594e+00,-5.354431271553039551e-01,-1.070886254310607910e+00,1.140000000000000000e+02
5.356386774197750128e+03,1.857069302118040923e+02,1.597066825831987444e+03,2.404451882113966349e+03,9.431758941811494878e+01,1.130595796541842901e+01,1.183369751743765482e+04,1.154724576260609410e+03,9.446745872497558594e+00,-5.354431271553039551e-01,-1.070886254310607910e+00,1.150000000000000000e+02
5.417527400747637330e+03,1.310805930653293672e+02,1.528969891938300862e+03,2.367105313153284442e+03,5.685325157928923545e+01,-4.762318627347508482e+01,1.081365831541170701e+04,1.080340729898783138e+03,9.446745872497558594e+00,-5.354431271553039551e-01,-1.070886254310607910e+00,1.160000000000000000e+02
5.318283098708039688e+03,2.798604173978603740e+02,1.549625892368139830e+03,2.320450186703847066e+03,8.090482273906764021e+01,5.633567061044891489e+01,1.062027775626752373e+04,1.168217734954264870e+03,9.446745872497558594e+00,-5.354431271553039551e-01,-1.070886254310607910e+00,1.170000000000000000e+02
5.122098873363012899e+03,4.611983284327666297e+02,1.650605418032260786e+03,2.336149204388932048e+03,1.713315273247299046e+02,2.220033262107860992e+02,1.049453480072371531e+04,1.320156451131128961e+03,9.446745872497558594e+00,-5.354431271553039551e-01,-1.070886254310607910e+00,1.180000000000000000e+02
5.026287023241471616e+03,4.617799797216580373e+02,1.712276229178125504e+03,2.399936350975152891e+03,2.397921429922880634e+02,2.622199856590330000e+02,9.916115718173110508e+03,1.348977861526699598e+03,9.446745872497558594e+00,-5.354431271553039551e-01,-1.070886254310607910e+00,1.190000000000000000e+02
5.089269208451171835e+03,3.186119911782343479e+02,1.669219401291099530e+03,2.431424433480571679e+03,2.277516255289906439e+02,1.612062501864529622e+02,9.078963311023077040e+03,1.236062984159247208e+03,9.446745872497558594e+00,-5.354431271553039551e-01,-1.070886254310607910e+00,1.200000000000000000e+02
5.150878115784323199e+03,2.655354022679011905e+02,1.601524876859488359e+03,2.394270348952053610e+03,1.875457988190360084e+02,9.611781747296731737e+01,8.201748986256650824e+03,1.157096116079108469e+03,9.446745872497558594e+00,-5.354431271553039551e-01,-1.070886254310607910e+00,1.210000000000000000e+02
5.054271388325541920e+03,4.106583877226246386e+02,1.624359221191153665e+03,2.346078332433638934e+03,2.098656213856315844e+02,1.939845430728771589e+02,7.557260492591829461e+03,1.240825394391614736e+03,9.446745872497558594e+00,-5.354431271553039551e-01,-1.070886254310607910e+00,1.220000000000000000e+02
4.862032658223540238e+03,5.887857828927039918e+02,1.726847565194874733e+03,2.358909417982474224e+03,2.984511026984578166e+02,3.572091011989491562e+02,7.440464547186795244e+03,1.391790075845055071e+03,9.446745872497558594e+00,-5.354431271553039551e-01,-1.070886254310607910e+00,1.230000000000000000e+02
4.769136559473069610e+03,5.896068985176211754e+02,1.784940344933322194e+03,2.419248540878642416e+03,3.648239166393398136e+02,3.976704002648518781e+02,7.327006087699312047e+03,1.421570108664626787e+03,9.446745872497558594e+00,-5.354431271553039551e-01,-1.070886254310607910e+00,1.240000000000000000e+02
4.833710364103757456e+03,4.464743013395930120e+02,1.733138784271679469e+03,2.446836556136566287e+03,3.502653355526349515e+02,2.962999250406535339e+02,6.322592610012485238e+03,1.308924802218763034e+03,9.446745872497558594e+00,-5.354431271553039551e-01,-1.070886254310607910e+00,1.250000000000000000e+02
4.896921204195811697e+03,3.893359612586791627e+02,1.656307980025952929e+03,2.406913117792527373e+03,3.067732724152110677e+02,2.295080298099662741e+02,4.971209490510456817e+03,1.228922621013395656e+03,9.446745872497558594e+00,-5.354431271553039551e-01,-1.070886254310607910e+00,1.260000000000000000e+02
4.801945715482075684e+03,5.279687517977722564e+02,1.672623267973362090e+03,2.358560212544960450e+03,3.253460613347026538e+02,3.243567602549580897e+02,4.690612691594233183e+03,1.310057937464540373e+03,9.446745872497558594e+00,-5.354431271553039551e-01,-1.070886254310607910e+00,1.270000000000000000e+02
4.610149229657956312e+03,7.007009457876263241e+02,1.770673074829265715e+03,2.371801733085183514e+03,4.109043542106935547e+02,4.819540828307522133e+02,5.050957882376904308e+03,1.456573876280717741e+03,9.446745872497558594e+00,-5.354431271553039551e-01,-1.070886254310607910e+00,1.280000000000000000e+02
4.516510637905409567e+03,6.967626229176250945e+02,1.827034341082147876e+03,2.430395526309765955e+03,4.765489927277469633e+02,5.155266957700905550e+02,4.309815316787571646e+03,1.482526480214798539e+03,9.446745872497558594e+00,-5.354431271553039551e-01,-1.070886254310607910e+00,1.290000000000000000e+02
4.580773477495879888e+03,5.476617561364353151e+02,1.778051950848433989e+03,2.455193785220208156e+03,4.640687997045333759e+02,4.104246347090365816e+02,2.855433148772022832e+03,1.369764624677081883e+03,9.446745872497558594e+00,-5.354431271553039551e-01,-1.070886254310607910e+00,1.300000000000000000e+02
4.645367030801701731e+03,4.858543509367793831e+02,1.706302457124289504e+03,2.413393244136386784e+03,4.231725646891295582e+02,3.431593112882351306e+02,2.527824022236673045e+03,1.291364853764941472e+03,9.446745872497558594e+00,-5.354431271553039551e-01,-1.070886254310607910e+00,1.310000000000000000e+02
4.553130455778371470e+03,6.252854658651613136e+02,1.724222238410824502e+03,2.362733839099051693e+03,4.411164276569354570e+02,4.356326213551596993e+02,2.619433621072264941e+03,1.371273684006041549e+03,9.446745872497558594e+00,-5.354431271553039551e-01,-1.070886254310607910e+00,1.320000000000000000e+02
4.364294163579845190e+03,8.031715832369375221e+02,1.818738128832372240e+03,2.372342897949210965e+03,5.218499136801451641e+02,5.880069016834136164e+02,1.199417325028454798e+03,1.514442585905998385e+03,9.446745872497558594e+00,-5.354431271553039551e-01,-1.070886254310607910e+00,1.330000000000000000e+02
4.273403319854860456e+03,8.035290715952155551e+02,1.870804664799847160e+03,2.429057190190973415e+03,5.813840932369641905e+02,6.186016932075910972e+02,2.610937957823407487e+02,1.539130352700305593e+03,9.446745872497558594e+00,-5.354431271553039551e-01,-1.070886254310607910e+00,1.340000000000000000e+02
4.340660134485508024e+03,6.551022029699033737e+02,1.820303735695833893e+03,2.455522108970124464e+03,5.644761164361539159e+02,5.136269615344542672e+02,3.771580380564526422e+03,1.426342740431200582e+03,9.446745872497558594e+00,-5.354431271553039551e-01,-1.070886254310607910e+00,1.350000000000000000e+02
4.408679814370575514e+03,5.906646617539470299e+02,1.748173379296111307e+03,2.415181621423660545e+03,5.213633490412598803e+02,4.442356737372954285e+02,1.045761901193403173e+04,1.344577208546205839e+03,9.484992027282714844e+00,-5.736890435218811035e-01,-1.032640218734741211e+00,1.360000000000000000e+02
4.319638064519057480e+03,7.240492241051808833e+02,1.764158259247625210e+03,2.361821830972461612e+03,5.389816332258546936e+02,5.314998609224610391e+02,1.452607713928026351e+04,1.418199055250188394e+03,9.484992027282714844e+00,-5.736890435218811035e-01,-1.032640218734741211e+00,1.370000000000000000e+02
4.132927115340314231e+03,8.928314903636689905e+02,1.855765125563828406e+03,2.365684853799864868e+03,6.209266374755979996e+02,6.811207431496618483e+02,1.393904407444018943e+04,1.556695584319982117e+03,9.484992027282714844e+00,-5.736890435218811035e-01,-1.032640218734741211e+00,1.380000000000000000e+02
4.042496757060558593e+03,8.841981836031193325e+02,1.905469794642534907e+03,2.416703961109520606e+03,6.812998096474761951e+02,7.122316988091426992e+02,1.216665580819952811e+04,1.578555093465925893e+03,9.484992027282714844e+00,-5.736890435218811035e-01,-1.032640218734741211e+00,1.390000000000000000e+02
4.108347047994011518e+03,7.303496690430872604e+02,1.852036822228242272e+03,2.438717827980002767e+03,6.620620113300849425e+02,6.052688926681000794e+02,1.168505999387555130e+04,1.461378621277326602e+03,9.484992027282714844e+00,-5.736890435218811035e-01,-1.032640218734741211e+00,1.400000000000000000e+02
4.174215625061823630e+03,6.645082435755471124e+02,1.774748956493999685e+03,2.395488814344595085e+03,6.129200956246336318e+02,5.299999660666269392e+02,1.139012488351417051e+04,1.374225044909262579e+03,9.484992027282714844e+00,-5.736890435218811035e-01,-1.032640218734741211e+00,1.410000000000000000e+02
4.084631249668331293e+03,7.990670135221114379e+02,1.785306114494978829e+03,2.340820153564522116e+03,6.233542284466770980e+02,6.128136046342392547e+02,1.051898718533677675e+04,1.445077228727525835e+03,9.484992027282714844e+00,-5.736890435218811035e-01,-1.032640218734741211e+00,1.420000000000000000e+02
3.899917393671431455e+03,9.701727561471166155e+02,1.875099969908376806e+03,2.343434191332482442e+03,7.001823749537074946e+02,7.618168445181731840e+02,1.006499914103483388e+04,1.583302545590671798e+03,9.484992027282714844e+00,-5.736890435218811035e-01,-1.032640218734741211e+00,1.430000000000000000e+02
3.812186179796593933e+03,9.633189573215831842e+02,1.926594685247587222e+03,2.392103735577180487e+03,7.589975374646141972e+02,7.932773515436047091e+02,1.005431142322122469e+04,1.604565886321289327e+03,9.484992027282714844e+00,-5.736890435218811035e-01,-1.032640218734741211e+00,1.440000000000000000e+02
3.879775532876368743e+03,8.092440873371585894e+02,1.874055440785830797e+03,2.412329060430229219e+03,7.405226300124156751e+02,6.866544813236600930e+02,9.317484956051775953e+03,1.486399994955080729e+03,9.484992027282714844e+00,-5.736890435218811035e-01,-1.032640218734741211e+00,1.450000000000000000e+02
3.947289967079438611e+03,7.413693298584996683e+02,1.794014394090633687e+03,2.369830552781861115e+03,6.915220901194134058e+02,6.136201707882169103e+02,7.999255057207868958e+03,1.399102505706273405e+03,9.484992027282714844e+00,-5.736890435218811035e-01,-1.032640218734741211e+00,1.460000000000000000e+02
3.860027079054421847e+03,8.732446231430315038e+02,1.800493273790681087e+03,2.317631630537762248e+03,6.999986346615050934e+02,6.998233738000392350e+02,7.415490452932175685e+03,1.469502057118248558e+03,9.484992027282714844e+00,-5.736890435218811035e-01,-1.032640218734741211e+00,1.470000000000000000e+02
3.676431686594360144e+03,1.041519593491036630e+03,1.887819633494067602e+03,2.322860053576538121e+03,7.741965312250183615e+02,8.503082003261911268e+02,7.617496461641889255e+03,1.606055615421624680e+03,9.484992027282714844e+00,-5.736890435218811035e-01,-1.032640218734741211e+00,1.480000000000000000e+02
3.587026665240524380e+03,1.031737895882070916e+03,1.938227118628577955e+03,2.373603622935705062e+03,8.310714191650420162e+02,8.805667869628189237e+02,7.346985034794197418e+03,1.626271891455252444e+03,9.484992027282714844e+00,-5.736890435218811035e-01,-1.032640218734741211e+00,1.490000000000000000e+02
3.652353008155138014e+03,8.747601623664256749e+02,1.885527826953320982e+03,2.393611584201443293e+03,8.104187012541051445e+02,7.711363844668931051e+02,6.334829418494189667e+03,1.508506728209797984e+03,9.484992027282714844e+00,-5.736890435218811035e-01,-1.032640218734741211e+00,1.500000000000000000e+02
3.720452118406022237e+03,8.037920282866459729e+02,1.807345916145041883e+03,2.346522548429923518e+03,7.582864273033846985e+02,6.939180028574758126e+02,5.791130759054958617e+03,1.420918695855540136e+03,9.484992027282714844e+00,-5.736890435218811035e-01,-1.032640218734741211e+00,1.510000000000000000e+02
3.636471344805126137e+03,9.324423001062666572e+02,1.815930255006087464e+03,2.287257621748303791e+03,7.637935816886083558e+02,7.751181967221939431e+02,6.201822016835212708e+03,1.489349518734036792e+03,9.484992027282714844e+00,-5.736890435218811035e-01,-1.032640218734741211e+00,1.520000000000000000e+02
3.455750332316086315e+03,1.098826788676029992e+03,1.900401086431134900e+03,2.287681659984138605e+03,8.353126733715535011e+02,9.217086024111729330e+02,6.217146326118716388e+03,1.623711842492183678e+03,9.484992027282714844e+00,-5.736890435218811035e-01,-1.032640218734741211e+00,1.530000000000000000e+02
3.367381893618870890e+03,1.089974505814223221e+03,1.942238310574662137e+03,2.337249714293441684e+03,8.882931450472165125e+02,9.499113048166275348e+02,4.950056209934145954e+03,1.641700686184814913e+03,9.484992027282714844e+00,-5.736890435218811035e-01,-1.032640218734741211e+00,1.540000000000000000e+02
3.433321137095952508e+03,9.356395397343178502e+02,1.881697495087209973e+03,2.357371561963334898e+03,8.634351525611054967e+02,8.387682563387613754e+02,4.148619233912939308e+03,1.520653287927796555e+03,9.484992027282714844e+00,-5.736890435218811035e-01,-1.032640218734741211e+00,1.550000000000000000e+02
3.502775765630533897e+03,8.659968758374986919e+02,1.801268978222007718e+03,2.310847056458584120e+03,8.103713963016662092e+02,7.591749499553013720e+02,5.973652047401206801e+03,1.430019572756542402e+03,9.484992027282714844e+00,-5.736890435218811035e-01,-1.032640218734741211e+00,1.560000000000000000e+02
3.420471707072561912e+03,9.933622918768755881e+02,1.811331181807153371e+03,2.253510229655384137e+03,8.189280263115238085e+02,8.380848435146060638e+02,9.349757670203875023e+03,1.497861650080750223e+03,9.523238182067871094e+00,-5.354431271553039551e-01,-1.070886254310607910e+00,1.570000000000000000e+02
3.241726550008114828e+03,1.157744414673990605e+03,1.898549351396429302e+03,2.256151062876106153e+03,8.939939502322479257e+02,9.832180729324743425e+02,1.117126819784832878e+04,1.633587164475135978e+03,9.523238182067871094e+00,-5.354431271553039551e-01,-1.070886254310607910e+00,1.580000000000000000e+02
3.156460562379814291e+03,1.148113408162082351e+03,1.944826977076122603e+03,2.306281000455886897e+03,9.490120569170907174e+02,1.010809542028926217e+03,1.074064144385784311e+04,1.653411737002894370e+03,9.523238182067871094e+00,-5.354431271553039551e-01,-1.070886254310607910e+00,1.590000000000000000e+02
3.226096841133109592e+03,9.927073684272047558e+02,1.888559068002795357e+03,2.325835928070033333e+03,9.262351767253288699e+02,9.000701427941969541e+02,1.012680968495506386e+04,1.534862803824740695e+03,9.523238182067871094e+00,-5.354431271553039551e-01,-1.070886254310607910e+00,1.600000000000000000e+02
3.298090729842975634e+03,9.185491549824191679e+02,1.807823456457676002e+03,2.278800913918345941e+03,8.754770179887430004e+02,8.217646670594708667e+02,1.039475920367091385e+04,1.446636979945005805e+03,9.523238182067871094e+00,-5.354431271553039551e-01,-1.070886254310607910e+00,1.610000000000000000e+02
3.217214184418908189e+03,1.038590882895419554e+03,1.813216553980388198e+03,2.220210060704727766e+03,8.834936950893691119e+02,9.012269880394837855e+02,1.052221635108363807e+04,1.513863398247595796e+03,9.523238182067871094e+00,-5.354431271553039551e-01,-1.070886254310607910e+00,1.620000000000000000e+02
3.040533067326286982e+03,1.197957660763281183e+03,1.896341317807177802e+03,2.220404584897754830e+03,9.540929530334530000e+02,1.044088279507650441e+03,9.998399777292843282e+03,1.645565564061579607e+03,9.523238182067871094e+00,-5.354431271553039551e-01,-1.070886254310607910e+00,1.630000000000000000e+02
2.957956796629408927e+03,1.188896280061723246e+03,1.941126901688175167e+03,2.268484632180920926e+03,1.004301868060333618e+03,1.066236263355200435e+03,9.678498710214793391e+03,1.661607105286054320e+03,9.523238182067871094e+00,-5.354431271553039551e-01,-1.070886254310607910e+00,1.640000000000000000e+02
3.029320383843722084e+03,1.036805783556726510e+03,1.884074351715613375e+03,2.286934390374953182e+03,9.793577558476557670e+02,9.483300723804109111e+02,9.916041976975126090e+03,1.541205254585766852e+03,9.523238182067871094e+00,-5.354431271553039551e-01,-1.070886254310607910e+00,1.650000000000000000e+02
3.102641638268414681e+03,9.637008494340539073e+02,1.802563880609977787e+03,2.238052858721972370e+03,9.271152005902790734e+02,8.627333261642556863e+02,1.000922746911345530e+04,1.450330207270425490e+03,9.523238182067871094e+00,-5.354431271553039551e-01,-1.070886254310607910e+00,1.660000000000000000e+02
3.024740492446064309e+03,1.080830677897553414e+03,1.807424597536523834e+03,2.176256689012000606e+03,9.314225094697420673e+02,9.364279028426740297e+02,9.663685112152496004e+03,1.512990514745081782e+03,9.523238182067871094e+00,-5.354431271553039551e-01,-1.070886254310607910e+00,1.670000000000000000e+02
2.851758281793447168e+03,1.234592645798674766e+03,1.888604315409347691e+03,2.173247394811897721e+03,9.973379392575404836e+02,1.077764437866414482e+03,9.346432754010153076e+03,1.641748973387649130e+03,9.523238182067871094e+00,-5.354431271553039551e-01,-1.070886254310607910e+00,1.680000000000000000e+02
2.770601902889546182e+03,1.218934237039046593e+03,1.929060119504765680e+03,2.218787550196476332e+03,1.044534634968800219e+03,1.104709197541594676e+03,9.308075378564841230e+03,1.658721453122245293e+03,9.523238182067871094e+00,-5.354431271553039551e-01,-1.070886254310607910e+00,1.690000000000000000e+02
2.841469910741324384e+03,1.061313766738961021e+03,1.867184683547656277e+03,2.235145279702634980e+03,1.017246889201498902e+03,9.955653657615152952e+02,9.340330313710561313e+03,1.540012074552280865e+03,9.523238182067871094e+00,-5.354431271553039551e-01,-1.070886254310607910e+00,1.700000000000000000e+02
2.915828389886270088e+03,9.856390686828879097e+02,1.781980923763679129e+03,2.185303773912513861e+03,9.611844853769681549e+02,9.164478291026789520e+02,9.281736777223177342e+03,1.448166244832129905e+03,9.523238182067871094e+00,-5.354431271553039551e-01,-1.070886254310607910e+00,1.710000000000000000e+02
2.841143978779618010e+03,1.102712363744698450e+03,1.784430778023397579e+03,2.123974801601961190e+03,9.620466454190907371e+02,9.904013464287420447e+02,9.119169876348036269e+03,1.508362985545295487e+03,9.523238182067871094e+00,-5.354431271553039551e-01,-1.070886254310607910e+00,1.720000000000000000e+02
2.670426125598219187e+03,1.257128223427176181e+03,1.865580226485786625e+03,2.121194950888730091e+03,1.027965233840385054e+03,1.127808037958641080e+03,8.878507763271227304e+03,1.635703511875883578e+03,9.523238182067871094e+00,-5.354431271553039551e-01,-1.070886254310607910e+00,1.730000000000000000e+02
2.588792457407396796e+03,1.243083927915002732e+03,1.908906858040189945e+03,2.165663727761509108e+03,1.077102381097553916e+03,1.150501593339692363e+03,8.704232043468447955e+03,1.651857981377391297e+03,9.523238182067871094e+00,-5.354431271553039551e-01,-1.070886254310607910e+00,1.740000000000000000e+02
2.658185693764928146e+03,1.089278183924596760e+03,1.849847079819138344e+03,2.181265415277252941e+03,1.050044165965726506e+03,1.037241136722203919e+03,8.723100345885457500e+03,1.531524620493393286e+03,9.523238182067871094e+00,-5.354431271553039551e-01,-1.070886254310607910e+00,1.750000000000000000e+02
2.732430019624633132e+03,1.017854166482512483e+03,1.764576082445225438e+03,2.132236040215625508e+03,9.924861884693193588e+02,9.522481000634390966e+02,8.772609978181157203e+03,1.437979854629360943e+03,9.523238182067871094e+00,-5.354431271553039551e-01,-1.070886254310607910e+00,1.760000000000000000e+02
2.659896076084062770e+03,1.136244584909202331e+03,1.765360725857473881e+03,2.071518545625343904e+03,9.917675608194120969e+02,1.018511325306564686e+03,8.605097597892519843e+03,1.497359132176257845e+03,9.523238182067871094e+00,-5.354431271553039551e-01,-1.070886254310607910e+00,1.770000000000000000e+02
2.493434774631607979e+03,1.288932394764578021e+03,1.844998118291522587e+03,2.067198058854804003e+03,1.055056262329711899e+03,1.148946409868399769e+03,8.300298116553300133e+03,1.623880909347865327e+03,9.523238182067871094e+00,-5.354431271553039551e-01,-1.070886254310607910e+00,1.780000000000000000e+02
2.417097705538183618e+03,1.272382447356229477e+03,1.885939951425273648e+03,2.109088581135583809e+03,1.100200966868160322e+03,1.167947500274313143e+03,8.149941074430518711e+03,1.638708543570038273e+03,9.523238182067871094e+00,-5.354431271553039551e-01,-1.070886254310607910e+00,1.790000000000000000e+02
2.491270506074934929e+03,1.115377952607430871e+03,1.823311450037779650e+03,2.123613917336994746e+03,1.071445281574075580e+03,1.054782936956826461e+03,8.211441971187432500e+03,1.517528632156760523e+03,9.523238182067871094e+00,-5.354431271553039551e-01,-1.070886254310607910e+00,1.800000000000000000e+02
2.569213564743469760e+03,1.039140327974900174e+03,1.734932371959212105e+03,2.075960051890448085e+03,1.016605358193334155e+03,9.720761940037139084e+02,8.240563427992190555e+03,1.423294413776603506e+03,9.523238182067871094e+00,-5.354431271553039551e-01,-1.070886254310607910e+00,1.810000000000000000e+02
2.499587182045503141e+03,1.153458677869974053e+03,1.732812300123412570e+03,2.018418824599743857e+03,1.019201743468656446e+03,1.040689020057613106e+03,8.054802806083895121e+03,1.480447083243622274e+03,9.523238182067871094e+00,-4.971971809864044189e-01,-9.561483860015869141e-01,1.820000000000000000e+02
2.334628828564065770e+03,1.306066293225968366e+03,1.808788298581632716e+03,2.018005271375985103e+03,1.082484222064470487e+03,1.172484817967104846e+03,7.773246091888604496e+03,1.604063041154378425e+03,9.523238182067871094e+00,-4.971971809864044189e-01,-9.561483860015869141e-01,1.830000000000000000e+02
2.257609898117314515e+03,1.291995757929124920e+03,1.848255065963653124e+03,2.063204625946184933e+03,1.125422886473688322e+03,1.191642680725744867e+03,7.637427765050637390e+03,1.618177636449196143e+03,9.523238182067871094e+00,-4.971971809864044189e-01,-9.561483860015869141e-01,1.840000000000000000e+02
2.330447219920806674e+03,1.135842191413043111e+03,1.789235422528912295e+03,2.079195794480712721e+03,1.093772887623925499e+03,1.077022182330613987e+03,7.688842824183930134e+03,1.498208487377851725e+03,9.523238182067871094e+00,-4.971971809864044189e-01,-9.561483860015869141e-01,1.850000000000000000e+02
2.409165946669078949e+03,1.057778251190515221e+03,1.705698201148459248e+03,2.030844334453001466e+03,1.033706446055795823e+03,9.915096239329523087e+02,7.720476379581583387e+03,1.404146396204781468e+03,9.523238182067871094e+00,-4.971971809864044189e-01,-9.561483860015869141e-01,1.860000000000000000e+02
2.342713456288325688e+03,1.168835637972250424e+03,1.703982273628544135e+03,1.970870887015442349e+03,1.029171647914032292e+03,1.058217869625185585e+03,7.547809960681077428e+03,1.460428778129498369e+03,9.523238182067871094e+00,-4.971971809864044189e-01,-9.561483860015869141e-01,1.870000000000000000e+02
2.181089978694274578e+03,1.316445257847223729e+03,1.776980637870064584e+03,1.966897545968948180e+03,1.088441891078338585e+03,1.191421522775728818e+03,7.269361383287545323e+03,1.584829590382900733e+03,9.523238182067871094e+00,-4.971971809864044189e-01,-9.561483860015869141e-01,1.880000000000000000e+02
2.106166592886830585e+03,1.295857939371810517e+03,1.814183655901119437e+03,2.008510539110432546e+03,1.133088416626942262e+03,1.214673129014514188e+03,7.130350521337361897e+03,1.601241412923012376e+03,9.523238182067871094e+00,-4.971971809864044189e-01,-9.561483860015869141e-01,1.890000000000000000e+02
2.180250598167180215e+03,1.134605967041436088e+03,1.753247034764453929e+03,2.022234322071885799e+03,1.104913513084569331e+03,1.103543352838318469e+03,7.184040203553740866e+03,1.482431989595369032e+03,9.523238182067871094e+00,-4.971971809864044189e-01,-9.561483860015869141e-01,1.900000000000000000e+02
2.259704822161038464e+03,1.054069843058256083e+03,1.666726309463150756e+03,1.972777954851313552e+03,1.046048671186945285e+03,1.018279289134582541e+03,7.218876569632555402e+03,1.388294982173902554e+03,9.523238182067871094e+00,-4.971971809864044189e-01,-9.561483860015869141e-01,1.910000000000000000e+02
2.193480369578074715e+03,1.163093663460449534e+03,1.663912819709125415e+03,1.911015492395185902e+03,1.041658591193697248e+03,1.081470055398759996e+03,7.051472122341942850e+03,1.445050895406669952e+03,9.523238182067871094e+00,-4.971971809864044189e-01,-9.561483860015869141e-01,1.920000000000000000e+02
2.032287054575217553e+03,1.309570201406079377e+03,1.740002912087708864e+03,1.903808641806270771e+03,1.102037199545180556e+03,1.207965262704656652e+03,6.780102574741128592e+03,1.569742880440988756e+03,9.523238182067871094e+00,-4.971971809864044189e-01,-9.561483860015869141e-01,1.930000000000000000e+02
1.958856782837097853e+03,1.292021852843929082e+03,1.781049874864528192e+03,1.942559834764846983e+03,1.147038505814673044e+03,1.222638562436732400e+03,6.648581287129241900e+03,1.584453189569619553e+03,9.523238182067871094e+00,-4.971971809864044189e-01,-9.561483860015869141e-01,1.940000000000000000e+02
2.035596994126926802e+03,1.135574531007121095e+03,1.720899632155205381e+03,1.955627261302653096e+03,1.116714743039624409e+03,1.103731467503194608e+03,6.708777631218038550e+03,1.463127945971148620e+03,9.523238182067871094e+00,-4.971971809864044189e-01,-9.561483860015869141e-01,1.950000000000000000e+02
2.118898571822862323e+03,1.054749518694415656e+03,1.633023256982547082e+03,1.907241375166762737e+03,1.055118708989152310e+03,1.014415184836368553e+03,6.748528997965313465e+03,1.367773703336128619e+03,9.523238182067871094e+00,-4.971971809864044189e-01,-9.561483860015869141e-01,1.960000000000000000e+02
2.057905524149238772e+03,1.158963598539126451e+03,1.628612859102919629e+03,1.847022672423249332e+03,1.049257821595386758e+03,1.077736372159470648e+03,6.584456299215832587e+03,1.423676258998830235e+03,9.523238182067871094e+00,-4.971971809864044189e-01,-9.561483860015869141e-01,1.970000000000000000e+02
1.902490651413734668e+03,1.303545148126914683e+03,1.702783180256676587e+03,1.841797954343183847e+03,1.107815838984909988e+03,1.205983688375554721e+03,6.315280580267334699e+03,1.545983932892689154e+03,9.523238182067871094e+00,-4.971971809864044189e-01,-9.561483860015869141e-01,1.980000000000000000e+02
1.833727287056155546e+03,1.287787343431334648e+03,1.742299593301661389e+03,1.883136737834520773e+03,1.149515330863508780e+03,1.221611871195520507e+03,6.186005066073690614e+03,1.557438108324187397e+03,9.523238182067871094e+00,-4.971971809864044189e-01,-9.561483860015869141e-01,1.990000000000000000e+02
1.913410323473915014e+03,1.130391410228394307e+03,1.682372967985574178e+03,1.898556084905143052e+03,1.116889791831644288e+03,1.103103888452551018e+03,6.250157716986277592e+03,1.433151030324232579e+03,9.523238182067871094e+00,-4.971971809864044189e-01,-9.561483860015869141e-01,2.000000000000000000e+02
1.998503892540214110e+03,1.045511017182979231e+03,1.594735207388012441e+03,1.851721089041222058e+03,1.055458032968649604e+03,1.014656938044398203e+03,6.296221407658246790e+03,1.334241880756331284e+03,9.523238182067871094e+00,-4.971971809864044189e-01,-9.561483860015869141e-01,2.010000000000000000e+02
1.938316162001767225e+03,1.149396553173589155e+03,1.587498310386428784e+03,1.793020796792345664e+03,1.049060322976918542e+03,1.078716655330070807e+03,6.139407812005681080e+03,1.385723255928438448e+03,9.523238182067871094e+00,-4.971971809864044189e-01,-9.561483860015869141e-01,2.020000000000000000e+02
1.782439613160615409e+03,1.299453437168596338e+03,1.656480042812415377e+03,1.789949831968398030e+03,1.103753721383665379e+03,1.206947708056099145e+03,5.876189501211194511e+03,1.505186451930539079e+03,9.523238182067871094e+00,-4.971971809864044189e-01,-9.561483860015869141e-01,2.030000000000000000e+02
1.712503730524764251e+03,1.290245495647091047e+03,1.691722199971087321e+03,1.833331874954235445e+03,1.140957946418657684e+03,1.222691962824909751e+03,5.750806111760432032e+03,1.517058933628054092e+03,9.523238182067871094e+00,-4.971971809864044189e-01,-9.561483860015869141e-01,2.040000000000000000e+02
1.791597659353823474e+03,1.137443925486498301e+03,1.629552981228635872e+03,1.849483181404084007e+03,1.106612639277542030e+03,1.104031105118007872e+03,5.818142838522853708e+03,1.394692317088083655e+03,9.523238182067871094e+00,-4.971971809864044189e-01,-9.561483860015869141e-01,2.050000000000000000e+02
1.877571112890842414e+03,1.055554035274596572e+03,1.541091999979949378e+03,1.801885033530629698e+03,1.044948036999657234e+03,1.012448114142246141e+03,5.868493963519245881e+03,1.297043193977800001e+03,9.523238182067871094e+00,-4.971971809864044189e-01,-9.561483860015869141e-01,2.060000000000000000e+02
1.819598943054033043e+03,1.160701291991410017e+03,1.534849328227363912e+03,1.741786606449110423e+03,1.037339173323002569e+03,1.070500039704794290e+03,5.717426093125212901e+03,1.349393731306385234e+03,9.523238182067871094e+00,-4.971971809864044189e-01,-9.561483860015869141e-01,2.070000000000000000e+02
1.665898827868061744e+03,1.310880902945674052e+03,1.607108495979780400e+03,1.737550377345729885e+03,1.091133393442945362e+03,1.194824121299901890e+03,5.460048705799627896e+03,1.470221683952665444e+03,9.523238182067871094e+00,-4.971971809864044189e-01,-9.561483860015869141e-01,2.080000000000000000e+02
1.596220442553929388e+03,1.303067310186745999e+03,1.647062127187569786e+03,1.779862724831280957e+03,1.129753355249010383e+03,1.211551728535726852e+03,5.338997277024657706e+03,1.483629190139566617e+03,9.523238182067871094e+00,-6.119350194931030273e-01,-9.943943619728088379e-01,2.090000000000000000e+02
1.673412328445923777e+03,1.153015480591193182e+03,1.590073794845478005e+03,1.794005681288647338e+03,1.097502174449942459e+03,1.095094437656209720e+03,5.409053310730699195e+03,1.362620195570282249e+03,9.523238182067871094e+00,-6.119350194931030273e-01,-9.943943619728088379e-01,2.100000000000000000e+02
1.757118899173120553e+03,1.072248339877142826e+03,1.506262287246529468e+03,1.742988547713506705e+03,1.036423286514454503e+03,1.003464252573050544e+03,5.462001831191632846e+03,1.266377960259128031e+03,9.523238182067871094e+00,-6.119350194931030273e-01,-9.943943619728088379e-01,2.110000000000000000e+02
1.697280393667188036e+03,1.175738412395530986e+03,1.502113604578114064e+03,1.678968199422704856e+03,1.029409165528151334e+03,1.061173041495373582e+03,5.314689952773351251e+03,1.320011725418109336e+03,9.523238182067871094e+00,-6.119350194931030273e-01,-9.943943619728088379e-01,2.120000000000000000e+02
1.540292593021061293e+03,1.323133135501572497e+03,1.573031414869615219e+03,1.671411492966245987e+03,1.086149531198225532e+03,1.186842118230856613e+03,5.061949693529862088e+03,1.441905396998896549e+03,9.523238182067871094e+00,-6.119350194931030273e-01,-9.943943619728088379e-01,2.130000000000000000e+02
1.464685965967405082e+03,1.312460840810549598e+03,1.610764527048133004e+03,1.711361013471015212e+03,1.128799634712955367e+03,1.204268464359821337e+03,4.945532768832438705e+03,1.456967312334808412e+03,9.523238182067871094e+00,-6.119350194931030273e-01,-9.943943619728088379e-01,2.140000000000000000e+02
1.535177387949614058e+03,1.159625907687310701e+03,1.553726369085131410e+03,1.724634644423203554e+03,1.098886396014535649e+03,1.086281795443908777e+03,5.020424712476245077e+03,1.338375317845821655e+03,9.523238182067871094e+00,-6.119350194931030273e-01,-9.943943619728088379e-01,2.150000000000000000e+02
1.613882277428689576e+03,1.076509137900254927e+03,1.471707089109893332e+03,1.674947353567618393e+03,1.038328377178180062e+03,9.934487199805598721e+02,5.079390489755923227e+03,1.243915900837318986e+03,9.523238182067871094e+00,-6.119350194931030273e-01,-9.943943619728088379e-01,2.160000000000000000e+02
1.551249688899544253e+03,1.177353023435212663e+03,1.468929709252493922e+03,1.613472054165896679e+03,1.031493658411749266e+03,1.051922033280734695e+03,4.939124028485904091e+03,1.298032246082944994e+03,9.523238182067871094e+00,-6.119350194931030273e-01,-9.943943619728088379e-01,2.170000000000000000e+02
1.393568333579809405e+03,1.320377380648507142e+03,1.539812517866718281e+03,1.607547474005541517e+03,1.087986901035253823e+03,1.178347782042839526e+03,4.692613811459848876e+03,1.420408687474650378e+03,9.523238182067871094e+00,-6.119350194931030273e-01,-9.943943619728088379e-01,2.180000000000000000e+02
1.319864297508027903e+03,1.304152229856883878e+03,1.576170152717571000e+03,1.648331398341960266e+03,1.129103776077545035e+03,1.195789439839823444e+03,4.580124702792331846e+03,1.436726484515536640e+03,9.523238182067871094e+00,-6.119350194931030273e-01,-9.943943619728088379e-01,2.190000000000000000e+02
1.394332413780249226e+03,1.146346635948114908e+03,1.516355943128465697e+03,1.663792181747487575e+03,1.097025730125393011e+03,1.079429684296642108e+03,4.657569711931542770e+03,1.318983234606851283e+03,9.523238182067871094e+00,-6.119350194931030273e-01,-9.943943619728088379e-01,2.200000000000000000e+02
1.477180293545351105e+03,1.059333383482922954e+03,1.430725343549026093e+03,1.617464726107558818e+03,1.034904903217441415e+03,9.901904622098509208e+02,4.719979201894008838e+03,1.223979240551100247e+03,9.523238182067871094e+00,-6.119350194931030273e-01,-9.943943619728088379e-01,2.210000000000000000e+02
1.417973396056914225e+03,1.157359128491088768e+03,1.425073128615387986e+03,1.557631449149054333e+03,1.027015056305880762e+03,1.050994721617669711e+03,4.584586911571085693e+03,1.276630292359620853e+03,9.523238182067871094e+00,-6.119350194931030273e-01,-9.943943619728088379e-01,2.220000000000000000e+02
1.263857394425794610e+03,1.299031395569297956e+03,1.495134958801810399e+03,1.550786542311605444e+03,1.082448188585842445e+03,1.176920749300104717e+03,4.342681137417427635e+03,1.397128740685981938e+03,9.523238182067871094e+00,-6.119350194931030273e-01,-9.943943619728088379e-01,2.230000000000000000e+02
1.194272386145511973e+03,1.282167820898856235e+03,1.532757067997441027e+03,1.590331389371466685e+03,1.122882684737607178e+03,1.193054243555755875e+03,4.233547126631441643e+03,1.411053871932401762e+03,9.523238182067871094e+00,-6.119350194931030273e-01,-9.943943619728088379e-01,2.240000000000000000e+02
1.272724366492855097e+03,1.123318300637842867e+03,1.474915859633888203e+03,1.605387081108794973e+03,1.090522375988986369e+03,1.075408491807568680e+03,4.314451854074752191e+03,1.290448896673155559e+03,9.523238182067871094e+00,-6.119350194931030273e-01,-9.943943619728088379e-01,2.250000000000000000e+02
1.359372408845090376e+03,1.035733375929352633e+03,1.389906847090121346e+03,1.558642695564649330e+03,1.027122558142132675e+03,9.827466625404993010e+02,4.381818958493079663e+03,1.192273538895341517e+03,9.523238182067871094e+00,-6.119350194931030273e-01,-9.943943619728088379e-01,2.260000000000000000e+02
1.304307284685698505e+03,1.134936750654577736e+03,1.382568740093146516e+03,1.498710551575700265e+03,1.015942770237830473e+03,1.037851634122503583e+03,4.252257314771248275e+03,1.241794933240405499e+03,9.523238182067871094e+00,-6.119350194931030273e-01,-9.943943619728088379e-01,2.270000000000000000e+02
1.153739291710884117e+03,1.278924617150475569e+03,1.449715163307298781e+03,1.493213099283593920e+03,1.067138074339301511e+03,1.160001095777127148e+03,4.015850684365145298e+03,1.360668772976588798e+03,9.523238182067871094e+00,-6.119350194931030273e-01,-9.943943619728088379e-01,2.280000000000000000e+02
1.085479232653297913e+03,1.264768065816798071e+03,1.484794912370816746e+03,1.534491501707690304e+03,1.104370466373961790e+03,1.177217231222776263e+03,3.911848409147178700e+03,1.375966896653781987e+03,9.523238182067871094e+00,-6.119350194931030273e-01,-9.943943619728088379e-01,2.290000000000000000e+02
1.163911641164024786e+03,1.108803019002901010e+03,1.425566038967881468e+03,1.549909659548692161e+03,1.070807853500084093e+03,1.062691608638815296e+03,3.997782845622225977e+03,1.258443867587652903e+03,9.523238182067871094e+00,-6.119350194931030273e-01,-9.943943619728088379e-01,2.300000000000000000e+02
1.252037054126522435e+03,1.022235301185270600e+03,1.341119149189851669e+03,1.502820345421978800e+03,1.007735854271699509e+03,9.709121233861369547e+02,4.069580091102296137e+03,1.161586203720868525e+03,9.523238182067871094e+00,-6.119350194931030273e-01,-9.943943619728088379e-01,2.310000000000000000e+02
1.200433775957811122e+03,1.118540846303709714e+03,1.337257228429352608e+03,1.442901787543457431e+03,9.971625849947365623e+02,1.024860220682349109e+03,3.943409793090911080e+03,1.209191758436968485e+03,9.523238182067871094e+00,-6.119350194931030273e-01,-9.943943619728088379e-01,2.320000000000000000e+02
1.052946446387315973e+03,1.257576578575332405e+03,1.410142100473938399e+03,1.436450762425508401e+03,1.048457445697985577e+03,1.146638002993430064e+03,3.709711310052540284e+03,1.324977365581755066e+03,9.523238182067871094e+00,-6.119350194931030273e-01,-9.943943619728088379e-01,2.330000000000000000e+02
9.866750432481107964e+02,1.239022081998117301e+03,1.450802870834239002e+03,1.474664454149148696e+03,1.085990048795802068e+03,1.164238318465402926e+03,3.608377152105143978e+03,1.338585637085593135e+03,9.523238182067871094e+00,-6.119350194931030273e-01,-9.943943619728088379e-01,2.340000000000000000e+02
1.068220741167318010e+03,1.078289095201364034e+03,1.395044618793333939e+03,1.486538547990844563e+03,1.053923270528405737e+03,1.048276568023030904e+03,3.697496418291905684e+03,1.221147423301751587e+03,9.523238182067871094e+00,-6.119350194931030273e-01,-9.943943619728088379e-01,2.350000000000000000e+02
1.161550359866410872e+03,9.866492521509785547e+02,1.311331211659255587e+03,1.437310344863709361e+03,9.926481254018362961e+02,9.528165954721498565e+02,3.773364312914041875e+03,1.124903426616619072e+03,9.523238182067871094e+00,-6.119350194931030273e-01,-9.943943619728088379e-01,2.360000000000000000e+02
1.115391437368327388e+03,1.081894516576335263e+03,1.305351913605033587e+03,1.376825314839884413e+03,9.824310656752736577e+02,1.003562655832657583e+03,3.651766417283735791e+03,1.172871493731800911e+03,9.523238182067871094e+00,-6.119350194931030273e-01,-9.943943619728088379e-01,2.370000000000000000e+02
9.725204210285783120e+02,1.225035606966614978e+03,1.373973858983113132e+03,1.371834355088741177e+03,1.033009013878496262e+03,1.125078583900196008e+03,3.422178729007897346e+03,1.289642942817765743e+03,9.523238182067871094e+00,-6.119350194931030273e-01,-9.943943619728088379e-01,2.380000000000000000e+02
9.110541692596952998e+02,1.210054925808546159e+03,1.410054710929588509e+03,1.414480485387104636e+03,1.070393651258973023e+03,1.145482454724660784e+03,3.324314145206129979e+03,1.306148293069871670e+03,9.523238182067871094e+00,-6.119350194931030273e-01,-9.943943619728088379e-01,2.390000000000000000e+02
9.976632505454490456e+02,1.048861902852752337e+03,1.350781143576830800e+03,1.432354550560730786e+03,1.038516717745801543e+03,1.034029392755003300e+03,3.417101178225183503e+03,1.192616173562513268e+03,9.446745872497558594e+00,-5.354431271553039551e-01,-1.032640218734741211e+00,2.400000000000000000e+02
1.094714691020356440e+03,9.558206055165651378e+02,1.264738329879948196e+03,1.387407018958482695e+03,9.766788616918865955e+02,9.427583166047556915e+02,3.497178468682909624e+03,1.098495599765198676e+03,9.446745872497558594e+00,-5.354431271553039551e-01,-1.032640218734741211e+00,2.410000000000000000e+02
1.050309327217969440e+03,1.050154793104793953e+03,1.257849979557658116e+03,1.328108360081245337e+03,9.663221898604169837e+02,9.952388706865290260e+02,3.379610626101517482e+03,1.146030091521648501e+03,9.446745872497558594e+00,-5.354431271553039551e-01,-1.032640218734741211e+00,2.420000000000000000e+02
9.077418316823368514e+02,1.190031153980576164e+03,1.327417311017025895e+03,1.322398338862907622e+03,1.018813012234063535e+03,1.115598973733448929e+03,3.153139909124143742e+03,1.262205750728393923e+03,9.446745872497558594e+00,-5.354431271553039551e-01,-1.032640218734741211e+00,2.430000000000000000e+02
8.449408889821070261e+02,1.170693724648607713e+03,1.365150971013395974e+03,1.363758118554781504e+03,1.058427091148731961e+03,1.134194817943985072e+03,3.057314301188683203e+03,1.279427025101602794e+03,9.446745872497558594e+00,-5.354431271553039551e-01,-1.032640218734741211e+00,2.440000000000000000e+02
9.287302416504053326e+02,1.009583551285484646e+03,1.306032714802144255e+03,1.380639338517132273e+03,1.026056082388623508e+03,1.022735532376495030e+03,3.151467092431264973e+03,1.166387406494470270e+03,9.446745872497558594e+00,-5.354431271553039551e-01,-1.032640218734741211e+00,2.450000000000000000e+02
1.023818124450575851e+03,9.207045173483929830e+02,1.218286340475485304e+03,1.335787624660347319e+03,9.614289646217744121e+02,9.329346783657315427e+02,3.233619342095087632e+03,1.071426286789285768e+03,9.446745872497558594e+00,-5.354431271553039551e-01,-1.032640218734741211e+00,2.460000000000000000e+02
9.807503774754177357e+02,1.017237385319855548e+03,1.209860330724984578e+03,1.277267882511526295e+03,9.487757311809191378e+02,9.859474378848435663e+02,3.120410458554273646e+03,1.117699704951179228e+03,9.446745872497558594e+00,-5.354431271553039551e-01,-1.032640218734741211e+00,2.470000000000000000e+02
8.424355579624116217e+02,1.156974781465936758e+03,1.280066091422238969e+03,1.271312503107981684e+03,1.000050865859003352e+03,1.104141314119813160e+03,2.900003632503814515e+03,1.231777337374689523e+03,9.446745872497558594e+00,-5.354431271553039551e-01,-1.032640218734741211e+00,2.480000000000000000e+02
7.844289638488189667e+02,1.141294636557369813e+03,1.320908696739293646e+03,1.310890533800321464e+03,1.038128133906838229e+03,1.117801460610344293e+03,2.809340683149315737e+03,1.243956983615610170e+03,9.446745872497558594e+00,-5.354431271553039551e-01,-1.032640218734741211e+00,2.490000000000000000e+02
8.715444407923641847e+02,9.889871915749977234e+02,1.266147963883327975e+03,1.326205574693494782e+03,1.003954645980412351e+03,9.999141991385249639e+02,2.906845636648333311e+03,1.123788149659703777e+03,9.446745872497558594e+00,-5.354431271553039551e-01,-1.032640218734741211e+00,2.500000000000000000e+02
9.674754182338838291e+02,9.079141910062926399e+02,1.182093831768501332e+03,1.281784615411637787e+03,9.384031943601594321e+02,9.045577049348303262e+02,2.992693676145259815e+03,1.023724322660523740e+03,9.446745872497558594e+00,-5.354431271553039551e-01,-1.032640218734741211e+00,2.510000000000000000e+02
9.228577698584795144e+02,1.007257716656695266e+03,1.175200014435487901e+03,1.225711617555767589e+03,9.250400620773971241e+02,9.550497870446297384e+02,2.884877631235060107e+03,1.068610398328196425e+03,9.446745872497558594e+00,-5.354431271553039551e-01,-1.032640218734741211e+00,2.520000000000000000e+02
7.818695312651761924e+02,1.147399279365065922e+03,1.244732138596546974e+03,1.223139789868193475e+03,9.742847931356100162e+02,1.073854293415406573e+03,2.669549335704894474e+03,1.183113223732568258e+03,9.446745872497558594e+00,-5.354431271553039551e-01,-1.032640218734741211e+00,2.530000000000000000e+02
7.214583021321777778e+02,1.132300479449363593e+03,1.284173598646680148e+03,1.265815202727113501e+03,1.010054010056413063e+03,1.089486037557468990e+03,2.581684151314600967e+03,1.196907063947300230e+03,9.446745872497558594e+00,-5.354431271553039551e-01,-1.032640218734741211e+00,2.540000000000000000e+02
8.074098641267701169e+02,9.788072785141084751e+02,1.229245121466446108e+03,1.282769466207644655e+03,9.760744082274886750e+02,9.730731800383073278e+02,2.681211578568843834e+03,1.080584159838955202e+03,9.446745872497558594e+00,-5.354431271553039551e-01,-1.032640218734741211e+00,2.550000000000000000e+02
9.048665025482569035e+02,8.925399814359634547e+02,1.146925979082813683e+03,1.237812302046864716e+03,9.132660416647886450e+02,8.774814500352767936e+02,2.770820967859832308e+03,9.848018015499874309e+02,9.446745872497558594e+00,-5.354431271553039551e-01,-1.032640218734741211e+00,2.560000000000000000e+02
8.654788151458651555e+02,9.843360040087973175e+02,1.141806493319056244e+03,1.179287026157904620e+03,9.021109475702705822e+02,9.259532242306586340e+02,2.668246822042765416e+03,1.031122346497024409e+03,9.446745872497558594e+00,-5.354431271553039551e-01,-1.032640218734741211e+00,2.570000000000000000e+02
7.314048726381843153e+02,1.117851712315789882e+03,1.210286816707524849e+03,1.173570463588961502e+03,9.513783533738205733e+02,1.042916835559454739e+03,2.457790936523275377e+03,1.145131191316973855e+03,9.446745872497558594e+00,-5.354431271553039551e-01,-1.032640218734741211e+00,2.580000000000000000e+02
6.758484280139637121e+02,1.098299283815846138e+03,1.245311956811753589e+03,1.214105487342067136e+03,9.864293073420622022e+02,1.059182153257657774e+03,2.374260005713709688e+03,1.159758898215779482e+03,9.446745872497558594e+00,-5.354431271553039551e-01,-1.032640218734741211e+00,2.590000000000000000e+02
7.637895251801473933e+02,9.420976822419306700e+02,1.184799344077549904e+03,1.231041958418444665e+03,9.519619540411267735e+02,9.450342117181435242e+02,2.478708790907585353e+03,1.044753103186003500e+03,9.446745872497558594e+00,-5.354431271553039551e-01,-1.032640218734741211e+00,2.600000000000000000e+02
8.626670239958220918e+02,8.547108969530627292e+02,1.097829588809904635e+03,1.187761514185788656e+03,8.879314712758896349e+02,8.503909400784377794e+02,2.573319179124860966e+03,9.479337221082805627e+02,9.484992027282714844e+00,-4.971971809864044189e-01,-1.032640218734741211e+00,2.610000000000000000e+02
8.248561026756742649e+02,9.472231557939840059e+02,1.090091296302853152e+03,1.131305543906561070e+03,8.749781242232011209e+02,8.981009689410602732e+02,2.474685365995923348e+03,9.925647664514226562e+02,9.484992027282714844e+00,-4.971971809864044189e-01,-1.032640218734741211e+00,2.620000000000000000e+02
6.907628945271426346e+02,1.082970091734375274e+03,1.159432513650847795e+03,1.127384553172800224e+03,9.237631631808244492e+02,1.014887894264779789e+03,2.266340329068334540e+03,1.107606237377771322e+03,9.484992027282714844e+00,-4.971971809864044189e-01,-1.032640218734741211e+00,2.630000000000000000e+02
6.334285621636936412e+02,1.065791411589357267e+03,1.199237768738843442e+03,1.169217874401096196e+03,9.597779861976077882e+02,1.032410886824968657e+03,2.183659130051730244e+03,1.124167206908315165e+03,9.484992027282714844e+00,-4.971971809864044189e-01,-1.032640218734741211e+00,2.640000000000000000e+02
7.201494187120497372e+02,9.102254283817637770e+02,1.144369268326492602e+03,1.186242377983552615e+03,9.257566074971045964e+02,9.197098351536405971e+02,2.288888246729005914e+03,1.008340360921503816e+03,9.484992027282714844e+00,-4.971971809864044189e-01,-1.032640218734741211e+00,2.650000000000000000e+02
8.194651112072006072e+02,8.211960471075690293e+02,1.059901465802686289e+03,1.141665045861847830e+03,8.611886159755931658e+02,8.259096217193082339e+02,2.385504424819468113e+03,9.094493485954017160e+02,9.484992027282714844e+00,-4.971971809864044189e-01,-1.032640218734741211e+00,2.660000000000000000e+02
7.826650690035348816e+02,9.116453365618535827e+02,1.051260517307280679e+03,1.083982233071907103e+03,8.479188486515949990e+02,8.736549919689896342e+02,2.290107400439334015e+03,9.539533389169782822e+02,9.484992027282714844e+00,-4.971971809864044189e-01,-1.032640218734741211e+00,2.670000000000000000e+02
6.497741358544972172e+02,1.046761555560190573e+03,1.118812727884290325e+03,1.080214323769909242e+03,8.963637861416282249e+02,9.895702142459222159e+02,2.085732285350393795e+03,1.069448042436022661e+03,9.484992027282714844e+00,-4.971971809864044189e-01,-1.032640218734741211e+00,2.680000000000000000e+02
5.946081040247172496e+02,1.029798430808527883e+03,1.157081443790937556e+03,1.123070662102785718e+03,9.309107532934522169e+02,1.006648332221890087e+03,2.006536671264235338e+03,1.084979089057899728e+03,9.484992027282714844e+00,-4.971971809864044189e-01,-1.032640218734741211e+00,2.690000000000000000e+02
6.839466155497648288e+02,8.746745046380838176e+02,1.100891966709351436e+03,1.141394133751557092e+03,8.952696722499831594e+02,8.954030920940831493e+02,2.113956784116358904e+03,9.687845577438265536e+02,9.484992027282714844e+00,-4.971971809864044189e-01,-1.032640218734741211e+00,2.700000000000000000e+02
7.848305776543438697e+02,7.881139559231105522e+02,1.016478844001578182e+03,1.099218204098648130e+03,8.307558570335822878e+02,8.032808305784947152e+02,2.212027582463622821e+03,8.716173108199927810e+02,9.484992027282714844e+00,-4.971971809864044189e-01,-1.032640218734741211e+00,2.710000000000000000e+02
7.488227318975841627e+02,8.833689056069461003e+02,1.010167773530178238e+03,1.045067461304270182e+03,8.189491952051866974e+02,8.502287539552216913e+02,2.118556124852701032e+03,9.169526022940290204e+02,9.484992027282714844e+00,-4.971971809864044189e-01,-1.032640218734741211e+00,2.720000000000000000e+02
6.176354221393194166e+02,1.021280073018210715e+03,1.080887764267021339e+03,1.043538212212883082e+03,8.691274405554431723e+02,9.638070391435721831e+02,1.916654349863882089e+03,1.031242947402634854e+03,9.484992027282714844e+00,-4.971971809864044189e-01,-1.032640218734741211e+00,2.730000000000000000e+02
5.652390735297121864e+02,1.001662525043948335e+03,1.121553163070611845e+03,1.085134355283176774e+03,9.058513575753713667e+02,9.793863447989315318e+02,1.839789817700497224e+03,1.047253404199485885e+03,9.484992027282714844e+00,-4.971971809864044189e-01,-1.032640218734741211e+00,2.740000000000000000e+02
6.570265358285578259e+02,8.409585128411299593e+02,1.067369090974174469e+03,1.099422398856971995e+03,8.728175406291684340e+02,8.670367417586730880e+02,1.949651065164882311e+03,9.346794754279280824e+02,9.484992027282714844e+00,-4.971971809864044189e-01,-1.032640218734741211e+00,2.750000000000000000e+02
7.595793685686548997e+02,7.497637693343440333e+02,9.848101692098352942e+02,1.052554236096515524e+03,8.098053754971151648e+02,7.737112786024263187e+02,2.051529178713139117e+03,8.406422144505158940e+02,9.484992027282714844e+00,-4.971971809864044189e-01,-1.032640218734741211e+00,2.760000000000000000e+02
7.247035152302269125e+02,8.422731305743473058e+02,9.786844556528685644e+02,9.941038998631192953e+02,7.976029495237489755e+02,8.215302714555455168e+02,1.963339326309636817e+03,8.867594626191785210e+02,9.484992027282714844e+00,-4.971971809864044189e-01,-1.032640218734741211e+00,2.770000000000000000e+02
5.929185437868000008e+02,9.809830742134472530e+02,1.047353323167315466e+03,9.891438641130662290e+02,8.468031019028148876e+02,9.381124540620930929e+02,1.766654415974746371e+03,1.001638686102452994e+03,9.484992027282714844e+00,-4.971971809864044189e-01,-1.032640218734741211e+00,2.780000000000000000e+02
5.368894808096956694e+02,9.681221424206396478e+02,1.085866433972134473e+03,1.029401266388500517e+03,8.831078816616427503e+02,9.549289527586261102e+02,1.694074281260658609e+03,1.018373313342119218e+03,9.484992027282714844e+00,-4.971971809864044189e-01,-1.032640218734741211e+00,2.790000000000000000e+02
6.240007637070157216e+02,8.161436567100136017e+02,1.031156179391604383e+03,1.045499271094879077e+03,8.496065962754255452e+02,8.408404322935402888e+02,1.808075164797548496e+03,9.042643708767936914e+02,9.484992027282714844e+00,-4.971971809864044189e-01,-1.032640218734741211e+00,2.800000000000000000e+02
7.248154308512785065e+02,7.270002044928187388e+02,9.484519648979821795e+02,1.002968396721109457e+03,7.852228052040845796e+02,7.461341195330860501e+02,1.914280400351664866e+03,8.065778754727416526e+02,9.484992027282714844e+00,-4.971971809864044189e-01,-1.032640218734741211e+00,2.810000000000000000e+02
6.918739999377867207e+02,8.138510020134217484e+02,9.409224812260472390e+02,9.497518949068526126e+02,7.709923855772121897e+02,7.939585391377368069e+02,1.828699696712807054e+03,8.498479218682296050e+02,9.484992027282714844e+00,-4.971971809864044189e-01,-1.032640218734741211e+00,2.820000000000000000e+02
5.623337382185491151e+02,9.473038022491891752e+02,1.007954714964280356e+03,9.501253286036317149e+02,8.185508527758356649e+02,9.096447365419280686e+02,1.633192352897807723e+03,9.642138769981647783e+02,9.484992027282714844e+00,-4.971971809864044189e-01,-1.032640218734741211e+00,2.830000000000000000e+02
5.062644452780805295e+02,9.341788094341518445e+02,1.046761283986083072e+03,9.959682010677825019e+02,8.549136809265910415e+02,9.254400623210203776e+02,1.561536441995027417e+03,9.826323131181688950e+02,9.484992027282714844e+00,-4.971971809864044189e-01,-1.032640218734741211e+00,2.840000000000000000e+02
5.917721207218710333e+02,7.834709150582129951e+02,9.946032522848217923e+02,1.017361224443786341e+03,8.238660857371469319e+02,8.133723782889064751e+02,1.677160048727011599e+03,8.720782809189113323e+02,9.484992027282714844e+00,-4.971971809864044189e-01,-1.032640218734741211e+00,2.850000000000000000e+02
6.908066866690933239e+02,6.950639420253992284e+02,9.154071638634759438e+02,9.781535853438435879e+02,7.630543314628921507e+02,7.229198330203507794e+02,1.785265890751736151e+03,7.781713310507875576e+02,9.484992027282714844e+00,-4.589512646198272705e-01,-1.070886254310607910e+00,2.860000000000000000e+02
6.563946051390084904e+02,7.852480674831858778e+02,9.112512390736774250e+02,9.252416989358152932e+02,7.510459930490978877e+02,7.739350600385860162e+02,1.702135386053549155e+03,8.229472085576198879e+02,9.484992027282714844e+00,-4.589512646198272705e-01,-1.070886254310607910e+00,2.870000000000000000e+02
5.270229852608099463e+02,9.252219405644027574e+02,9.808875890862327651e+02,9.237270697812309663e+02,7.987368798118877748e+02,8.913493644865338865e+02,1.508885858097059099e+03,9.362989223325203056e+02,9.484992027282714844e+00,-4.589512646198272705e-01,-1.070886254310607910e+00,2.880000000000000000e+02
4.745126351049293589e+02,9.166537710026259447e+02,1.020666828269499092e+03,9.669872513807258656e+02,8.344757743137306534e+02,9.080249497131426324e+02,1.439213986011211091e+03,9.528380877653980860e+02,9.484992027282714844e+00,-4.589512646198272705e-01,-1.070886254310607910e+00,2.890000000000000000e+02
5.660519686268671649e+02,7.646777617784428003e+02,9.669752497435983969e+02,9.858324049674065463e+02,8.025065531331274542e+02,7.947566713197320496e+02,1.556740786805148673e+03,8.401945345269905374e+02,9.484992027282714844e+00,-4.589512646198272705e-01,-1.070886254310607910e+00,2.900000000000000000e+02
6.704465382056041562e+02,6.713645028003084008e+02,8.838486196653157094e+02,9.442984316783422400e+02,7.396462099571326689e+02,7.013945265394922899e+02,1.667708897764223366e+03,7.443763422872016235e+02,9.484992027282714844e+00,-4.589512646198272705e-01,-1.070886254310607910e+00,2.910000000000000000e+02
6.390585203069131239e+02,7.576433634112290747e+02,8.753075026698388683e+02,8.894684203886299656e+02,7.254403954100744158e+02,7.506038581949178479e+02,1.588591878155446466e+03,7.891871946637675137e+02,9.484992027282714844e+00,-4.589512646198272705e-01,-1.070886254310607910e+00,2.920000000000000000e+02
5.105108529289791477e+02,8.968773552962666145e+02,9.431054847818268172e+02,8.865214114847913152e+02,7.733028241695501492e+02,8.675330436368167284e+02,1.398580890597273537e+03,9.051577177571380162e+02,9.484992027282714844e+00,-4.589512646198272705e-01,-1.070886254310607910e+00,2.930000000000000000e+02
4.563575508468711632e+02,8.895760403303211206e+02,9.847128816130552877e+02,9.290211694285717385e+02,8.113455244887973095e+02,8.828540681529993890e+02,1.329869142256466148e+03,9.246609960375280934e+02,9.484992027282714844e+00,-4.589512646198272705e-01,-1.070886254310607910e+00,2.940000000000000000e+02
5.443665354560835112e+02,7.380896681853209884e+02,9.341452695718362520e+02,9.480435488196562801e+02,7.808773442932088074e+02,7.679636588890207349e+02,1.447494494421851414e+03,8.134849198458941828e+02,9.484992027282714844e+00,-4.589512646198272705e-01,-1.070886254310607910e+00,2.950000000000000000e+02
6.467028089193809137e+02,6.422968044730150723e+02,8.526953628887458763e+02,9.068218614800935029e+02,7.181826166812370502e+02,6.746120289642367425e+02,1.559839799588095048e+03,7.183979863471213321e+02,9.484992027282714844e+00,-4.589512646198272705e-01,-1.070886254310607910e+00,2.960000000000000000e+02
6.172810921835480258e+02,7.232994077368857688e+02,8.448273322077857301e+02,8.508014988236682257e+02,7.050804838740768901e+02,7.241263913989132561e+02,1.483046640896609460e+03,7.641212378779491701e+02,9.484992027282714844e+00,-4.589512646198272705e-01,-1.070886254310607910e+00,2.970000000000000000e+02
4.924558113030579989e+02,8.571815184022925678e+02,9.140656832133900025e+02,8.455778450017714931e+02,7.549322122260346077e+02,8.402244804444308102e+02,1.294719733692174486e+03,8.807046164779676474e+02,9.484992027282714844e+00,-4.589512646198272705e-01,-1.070886254310607910e+00,2.980000000000000000e+02
4.402045569520305435e+02,8.478566556679361383e+02,9.573851541893473041e+02,8.878927415923753870e+02,7.932292624586680176e+02,8.554716453838427697e+02,1.227089504750416381e+03,9.001024806541299768e+02,9.484992027282714844e+00,-4.589512646198272705e-01,-1.070886254310607910e+00,2.990000000000000000e+02
5.287957531483771163e+02,6.990822066003584041e+02,9.071092650356567901e+02,9.105144196700275643e+02,7.611671328723259649e+02,7.414710475177798799e+02,1.346449983220918512e+03,7.880347068227165437e+02,9.484992027282714844e+00,-4.589512646198272705e-01,-1.070886254310607910e+00,3.000000000000000000e+02
6.327620088745898101e+02,6.087429053855339589e+02,8.242988117114891793e+02,8.741104664736594714e+02,6.972882865200917877e+02,6.465303627041739674e+02,1.461670515075544245e+03,6.909476364805777848e+02,9.484992027282714844e+00,-4.589512646198272705e-01,-1.070886254310607910e+00,3.010000000000000000e+02
6.052220424855986494e+02,6.941011094424829935e+02,8.138797455445219384e+02,8.209753982180191088e+02,6.832288907933361770e+02,6.925013623587929033e+02,1.388483236042695353e+03,7.343030995042172435e+02,9.484992027282714844e+00,-4.589512646198272705e-01,-1.070886254310607910e+00,3.020000000000000000e+02
4.800426321206759894e+02,8.290808821892223932e+02,8.795546431383172603e+02,8.168468721558238030e+02,7.305463784358580597e+02,8.091584968619026768e+02,1.203650852620041405e+03,8.503101353901365655e+02,9.484992027282714844e+00,-4.589512646198272705e-01,-1.070886254310607910e+00,3.030000000000000000e+02
4.252253960904272390e+02,8.189275302034311608e+02,9.196045840224069252e+02,8.599014665640897874e+02,7.658817301924536878e+02,8.305596963600219169e+02,1.138017686419552774e+03,8.716798478193450137e+02,9.484992027282714844e+00,-4.589512646198272705e-01,-1.070886254310607910e+00,3.040000000000000000e+02
5.106059291987839970e+02,6.703017852836801467e+02,8.683045796498881828e+02,8.828767205116892001e+02,7.329713240323399077e+02,7.218930164170633361e+02,1.257301371403926169e+03,7.623425835377602198e+02,9.484992027282714844e+00,-4.589512646198272705e-01,-1.070886254310607910e+00,3.050000000000000000e+02
6.110839762793293630e+02,5.822989265645137493e+02,7.866514767587650567e+02,8.466340419874613872e+02,6.698561362506006844e+02,6.267781137231067987e+02,1.372411926456617948e+03,6.670503447225019045e+02,9.484992027282714844e+00,-4.589512646198272705e-01,-1.070886254310607910e+00,3.060000000000000000e+02
5.802012150994996773e+02,6.707947250129673193e+02,7.779828858263863367e+02,7.950469653625623323e+02,6.564053665441279009e+02,6.691657623511782731e+02,1.301790432924593915e+03,7.109995574323984329e+02,9.484992027282714844e+00,-4.589512646198272705e-01,-1.070886254310607910e+00,3.070000000000000000e+02
4.537406546158345009e+02,8.075061966592747922e+02,8.454222732651178376e+02,7.937482065698386577e+02,7.047986662470866577e+02,7.819136253000542638e+02,1.121639621951857407e+03,8.262315917235137022e+02,9.484992027282714844e+00,-4.589512646198272705e-01,-1.070886254310607910e+00,3.080000000000000000e+02
4.008114022261142964e+02,7.964694278954375477e+02,8.871525870812547510e+02,8.381325718906955444e+02,7.424881262592389248e+02,8.000899038409661443e+02,1.059648268827564607e+03,8.457340762746553082e+02,9.484992027282714844e+00,-4.589512646198272705e-01,-1.070886254310607910e+00,3.090000000000000000e+02
4.900084515480484697e+02,6.445265562215172395e+02,8.368844124571660359e+02,8.597931432201585267e+02,7.115269221421476686e+02,6.907308211305280565e+02,1.180358908028865699e+03,7.353233558878855547e+02,9.484992027282714844e+00,-4.589512646198272705e-01,-1.070886254310607910e+00,3.100000000000000000e+02
5.945755631439315039e+02,5.526431924570879346e+02,7.565849338078915025e+02,8.221529055708451779e+02,6.486388749996731349e+02,5.990707800188283727e+02,1.296381285239527642e+03,6.410684474091285665e+02,9.484992027282714844e+00,-4.589512646198272705e-01,-1.070886254310607910e+00,3.110000000000000000e+02
5.670928398214673507e+02,6.400534217409804114e+02,7.519343025275084074e+02,7.712954173232792527e+02,6.350857894228829537e+02,6.466865772944802302e+02,1.227099931895252666e+03,6.868258681987499585e+02,9.484992027282714844e+00,-4.589512646198272705e-01,-1.070886254310607910e+00,3.120000000000000000e+02
4.421918684463598765e+02,7.801471705149524496e+02,8.256334307466931932e+02,7.720937991918399348e+02,6.844487932898518920e+02,7.626761062997829868e+02,1.047078556303989899e+03,8.033935613307548920e+02,9.484992027282714844e+00,-5.736890435218811035e-01,-1.032640218734741211e+00,3.130000000000000000e+02
3.884108321401799913e+02,7.740391501353151398e+02,8.722394312450887810e+02,8.190303727004429675e+02,7.236587258997969911e+02,7.818504530078971584e+02,9.846504178263712674e+02,8.248931743852735963e+02,9.484992027282714844e+00,-5.736890435218811035e-01,-1.032640218734741211e+00,3.140000000000000000e+02
4.756551531571167288e+02,6.248239671354240272e+02,8.232821292438238743e+02,8.440582245643745409e+02,6.940596018992509926e+02,6.729056743304463453e+02,1.106059267169621307e+03,7.173013026496882958e+02,9.484992027282714844e+00,-5.736890435218811035e-01,-1.032640218734741211e+00,3.150000000000000000e+02
5.787170712672887021e+02,5.344131354788478347e+02,7.413857679031680163e+02,8.094162237342279695e+02,6.321482889073377009e+02,5.809487168092746288e+02,1.224441038500750437e+03,6.237199586842252756e+02,9.484992027282714844e+00,-5.736890435218811035e-01,-1.032640218734741211e+00,3.160000000000000000e+02
5.503527131639930303e+02,6.245170929193845950e+02,7.330511960496769461e+02,7.582590439018058532e+02,6.184642800473520765e+02,6.269652010750505724e+02,1.157560695305473928e+03,6.664382656919733563e+02,9.484992027282714844e+00,-5.736890435218811035e-01,-1.032640218734741211e+00,3.170000000000000000e+02
4.255487763773344341e+02,7.665001647150565987e+02,8.019781737382909341e+02,7.547813030657671334e+02,6.663028373104025377e+02,7.410307163758116076e+02,9.796271508717909455e+02,7.791196068600693252e+02,9.484992027282714844e+00,-5.736890435218811035e-01,-1.032640218734741211e+00,3.180000000000000000e+02
3.740200841744008358e+02,7.588030849040296744e+02,8.453202742015273543e+02,7.958643689222008106e+02,7.038928035267308587e+02,7.586101837413225439e+02,9.193795482403002097e+02,7.987573197675446863e+02,9.484992027282714844e+00,-5.736890435218811035e-01,-1.032640218734741211e+00,3.190000000000000000e+02
4.653248963916266803e+02,6.072803640089477994e+02,7.961611176395308576e+02,8.153350055402552243e+02,6.737136886913431226e+02,6.476084835851870594e+02,1.044172841975974734e+03,6.906348552740964806e+02,9.484992027282714844e+00,-5.736890435218811035e-01,-1.032640218734741211e+00,3.200000000000000000e+02
5.722238622085787938e+02,5.166162400077882921e+02,7.152806865369566367e+02,7.758435949571648962e+02,6.117947891814546892e+02,5.531112465316946327e+02,1.166575206121677184e+03,5.967928281834610971e+02,9.484992027282714844e+00,-5.736890435218811035e-01,-1.032640218734741211e+00,3.210000000000000000e+02
5.466240686000528513e+02,6.052448927085315518e+02,7.071785534510236175e+02,7.218269292782060802e+02,5.980018444469060341e+02,5.973649356985260965e+02,1.103160114494574373e+03,6.404129951985669322e+02,9.484992027282714844e+00,-5.736890435218811035e-01,-1.032640218734741211e+00,3.220000000000000000e+02
4.239149631074033096e+02,7.425772180096682860e+02,7.763076070897732279e+02,7.190053435879817698e+02,6.456389107009090367e+02,7.107552849848070764e+02,9.276696386956755305e+02,7.551096597507785191e+02,9.484992027282714844e+00,-5.736890435218811035e-01,-1.032640218734741211e+00,3.230000000000000000e+02
3.731242242119624279e+02,7.321246758193956339e+02,8.204857414704019902e+02,7.632119040238030721e+02,6.825963325807279034e+02,7.280697519756722613e+02,8.688246051214300678e+02,7.759331533243384911e+02,9.484992027282714844e+00,-5.736890435218811035e-01,-1.032640218734741211e+00,3.240000000000000000e+02
4.630085629143359256e+02,5.820153098252885684e+02,7.711946217254553630e+02,7.858424376168732124e+02,6.509262646165443584e+02,6.175500550373144506e+02,9.940253226536660804e+02,6.676609358594287187e+02,9.484992027282714844e+00,-5.736890435218811035e-01,-1.032640218734741211e+00,3.250000000000000000e+02
5.675210598994235625e+02,4.905215062352363020e+02,6.885559745013815700e+02,7.492144066715300141e+02,5.874223958371294430e+02,5.250989514085995324e+02,1.116319174617288809e+03,5.737857833795642364e+02,9.484992027282714844e+00,-5.736890435218811035e-01,-1.032640218734741211e+00,3.260000000000000000e+02
5.396882720367357251e+02,5.726658956098326598e+02,6.791798806056176545e+02,6.990089577019352873e+02,5.730060400892034522e+02,5.724524215582860052e+02,1.052995198605356563e+03,6.179161164522447507e+02,9.484992027282714844e+00,-5.736890435218811035e-01,-1.032640218734741211e+00,3.270000000000000000e+02
4.138719995497085620e+02,7.041727808482173714e+02,7.487392658958269749e+02,7.008259530074465147e+02,6.207034146729165514e+02,6.889457413446762075e+02,8.779410056086853729e+02,7.329705444895153050e+02,9.484992027282714844e+00,-5.736890435218811035e-01,-1.032640218734741211e+00,3.280000000000000000e+02
3.587565545800825930e+02,6.933976636630141002e+02,7.934967802347200632e+02,7.490993851660605287e+02,6.576921979404032754e+02,7.088908744184009265e+02,8.196862246072705602e+02,7.540533141845553473e+02,9.484992027282714844e+00,-5.736890435218811035e-01,-1.032640218734741211e+00,3.290000000000000000e+02
4.454536384855819051e+02,5.453214119639160344e+02,7.441121219283195387e+02,7.744408024036565621e+02,6.262242998197325505e+02,5.996513166600452678e+02,9.460854955492031877e+02,6.457987083538901061e+02,9.484992027282714844e+00,-5.736890435218811035e-01,-1.032640218734741211e+00,3.300000000000000000e+02
5.496662477792560821e+02,4.556820895725031733e+02,6.619793172304489417e+02,7.388765442054827872e+02,5.632197640515078092e+02,5.062295482740955777e+02,1.070891882648706087e+03,5.506655343321144755e+02,9.484992027282714844e+00,-5.736890435218811035e-01,-1.032640218734741211e+00,3.310000000000000000e+02
5.232929200386497541e+02,5.413519955241681600e+02,6.535181620811817993e+02,6.875301642420890857e+02,5.490122158193589712e+02,5.516756185846243170e+02,1.010875521245194250e+03,5.930247690335709194e+02,9.484992027282714844e+00,-5.736890435218811035e-01,-1.032640218734741211e+00,3.320000000000000000e+02
3.992745974033095990e+02,6.777571842770266812e+02,7.225595901662236429e+02,6.860912598104623612e+02,5.970966533311911917e+02,6.676158398690058675e+02,8.383166537544893799e+02,7.086877811630183714e+02,9.484992027282714844e+00,-5.736890435218811035e-01,-1.032640218734741211e+00,3.330000000000000000e+02
3.463030282692488981e+02,6.702635161115067604e+02,7.664256016560357239e+02,7.304438822723132034e+02,6.364247458619029203e+02,6.878950528378773015e+02,7.811183606323684216e+02,7.333662941402217257e+02,9.484992027282714844e+00,-5.736890435218811035e-01,-1.032640218734741211e+00,3.340000000000000000e+02
4.354817624771603732e+02,5.233920106126752216e+02,7.189567134604185412e+02,7.528291746942632017e+02,6.090347446784398926e+02,5.776060548515706614e+02,9.083376714045007247e+02,6.286791592565641622e+02,9.484992027282714844e+00,-5.736890435218811035e-01,-1.032640218734741211e+00,3.350000000000000000e+02
5.422655720341426786e+02,4.338611086740929750e+02,6.405335180549955112e+02,7.158618611924102879e+02,5.484109426808026910e+02,4.819998063251150597e+02,1.034916202003936633e+03,5.350213790763409634e+02,9.484992027282714844e+00,-5.736890435218811035e-01,-1.032640218734741211e+00,3.360000000000000000e+02
5.189096974359272281e+02,5.186581443173163279e+02,6.331203608624637127e+02,6.645110701718695054e+02,5.325241671290896193e+02,5.267282511772064026e+02,9.770551639219047502e+02,5.779336880437476793e+02,9.484992027282714844e+00,-5.736890435218811035e-01,-1.032640218734741211e+00,3.370000000000000000e+02
3.980764458050107351e+02,6.550695649271729053e+02,7.003145695427156170e+02,6.642412106492265593e+02,5.769787848254491109e+02,6.446943156679371896e+02,8.056346352423715871e+02,6.943992621926299762e+02,9.484992027282714844e+00,-5.736890435218811035e-01,-1.032640218734741211e+00,3.380000000000000000e+02
3.470038026871407055e+02,6.501672997812747781e+02,7.433739377724195947e+02,7.104988959089241689e+02,6.140402164052138687e+02,6.689722610138269374e+02,7.482508773493318586e+02,7.193840812151647697e+02,9.484992027282714844e+00,-5.736890435218811035e-01,-1.032640218734741211e+00,3.390000000000000000e+02
4.367342483024694957e+02,5.046484910548133485e+02,6.967965914866326784e+02,7.345116125738859409e+02,5.859610094611489330e+02,5.631141799711185740e+02,8.740229318121273536e+02,6.137929245554441877e+02,9.484992027282714844e+00,-5.736890435218811035e-01,-1.032640218734741211e+00,3.400000000000000000e+02
5.447911247997908504e+02,4.111598961958516156e+02,6.185633921967637434e+02,6.977195513885380933e+02,5.250422124090000580e+02,4.699927077040629229e+02,9.998400905195303494e+02,5.182918585976476606e+02,9.484992027282714844e+00,-5.736890435218811035e-01,-1.032640218734741211e+00,3.410000000000000000e+02
5.244813655916223070e+02,4.908417260216156137e+02,6.117177134112935164e+02,6.447763351520989090e+02,5.100219242153980304e+02,5.133441526614733448e+02,9.423019919908692827e+02,5.587009494151898252e+02,9.484992027282714844e+00,-5.736890435218811035e-01,-1.032640218734741211e+00,3.420000000000000000e+02
4.072709434309872449e+02,6.269720264254574431e+02,6.824969448614065186e+02,6.420084636843675980e+02,5.573338866002195573e+02,6.274942673765872314e+02,7.720245560128823854e+02,6.725532723362557590e+02,9.484992027282714844e+00,-5.736890435218811035e-01,-1.032640218734741211e+00,3.430000000000000000e+02
3.592811841052243835e+02,6.246931630503167980e+02,7.296446746455767425e+02,6.861568821066757664e+02,5.971918504264140211e+02,6.489317053290651529e+02,7.157793945231387625e+02,6.961252200679155067e+02,9.523238182067871094e+00,-5.736890435218811035e-01,-1.032640218734741211e+00,3.440000000000000000e+02
4.512121770578305586e+02,4.807368415052442288e+02,6.832790234689928184e+02,7.094532009546892368e+02,5.694734816546442744e+02,5.419268499601967051e+02,8.428263271418982185e+02,5.908880404781484685e+02,9.523238182067871094e+00,-5.736890435218811035e-01,-1.032640218734741211e+00,3.450000000000000000e+02
5.599056664292656933e+02,3.896620104526809882e+02,6.027359205995308002e+02,6.737689939957781462e+02,5.074013400458024989e+02,4.475012795821494365e+02,9.693289834811876062e+02,4.964781098132916668e+02,9.523238182067871094e+00,-5.736890435218811035e-01,-1.032640218734741211e+00,3.460000000000000000e+02
5.385868875062151346e+02,4.739297527177659504e+02,5.951576856138017320e+02,6.230718315075428109e+02,4.918645843200756644e+02,4.892676135236688424e+02,9.126085297622194048e+02,5.378634012630427605e+02,9.523238182067871094e+00,-5.736890435218811035e-01,-1.032640218734741211e+00,3.470000000000000000e+02
4.200249274034140399e+02,6.124575184952700511e+02,6.664992549004127795e+02,6.222415602935507195e+02,5.391086752622286440e+02,6.033795599552358908e+02,7.431300788666703738e+02,6.529536660679077613e+02,9.523238182067871094e+00,-5.736890435218811035e-01,-1.032640218734741211e+00,3.480000000000000000e+02
3.707201781556213973e+02,6.085618693395881564e+02,7.132139123544984614e+02,6.680798430705981445e+02,5.782105057254448184e+02,6.267014100580199738e+02,6.869426803356327582e+02,6.781977457290922757e+02,9.523238182067871094e+00,-5.736890435218811035e-01,-1.032640218734741211e+00,3.490000000000000000e+02
4.600474091104115359e+02,4.632396545824958594e+02,6.663283351665522787e+02,6.949351914026483428e+02,5.498768769516900647e+02,5.223638158267604013e+02,8.137196928061603103e+02,5.744742834642202070e+02,9.523238182067871094e+00,-5.736890435218811035e-01,-1.032640218734741211e+00,3.500000000000000000e+02
5.648844615279085701e+02,3.726073893973989470e+02,5.863577718125452520e+02,6.649583043070306303e+02,4.888898305611000978e+02,4.310935590479930397e+02,9.413082123642088845e+02,4.814797119211980316e+02,9.523238182067871094e+00,-5.736890435218811035e-01,-1.032640218734741211e+00,3.510000000000000000e+02
5.404489245543882134e+02,4.558205983690531866e+02,5.781539571361645358e+02,6.183829908994302968e+02,4.756712558259241632e+02,4.765912916695233434e+02,8.873695285612629959e+02,5.247935190313073690e+02,9.523238182067871094e+00,-5.736890435218811035e-01,-1.032640218734741211e+00,3.520000000000000000e+02
4.199745146268687677e+02,5.919371257606144354e+02,6.459466358803983894e+02,6.172871643568796571e+02,5.244960494979895884e+02,5.937984435161488364e+02,7.206544102985790232e+02,6.414747767469161772e+02,9.523238182067871094e+00,-5.736890435218811035e-01,-1.032640218734741211e+00,3.530000000000000000e+02
3.687902021438494558e+02,5.882213394170685206e+02,6.888629684777188231e+02,6.608775924611836672e+02,5.634259567077242536e+02,6.179993188705411740e+02,6.660938402795873117e+02,6.658744417037814856e+02,9.523238182067871094e+00,-5.736890435218811035e-01,-1.032640218734741211e+00,3.540000000000000000e+02
4.572020145713104284e+02,4.455986300600961840e+02,6.411699675074996776e+02,6.865297880316065857e+02,5.338458535984827904e+02,5.121241010111480136e+02,7.941487599709362257e+02,5.585715858321491396e+02,9.523238182067871094e+00,-5.736890435218811035e-01,-1.032640218734741211e+00,3.550000000000000000e+02
5.642541721155939740e+02,3.566826995224837447e+02,5.627770820052755880e+02,6.549809073866199469e+02,4.715951065212721005e+02,4.180563326336123282e+02,9.230298898102919338e+02,4.617979521849010780e+02,9.523238182067871094e+00,-5.736890435218811035e-01,-1.032640218734741211e+00,3.560000000000000000e+02
5.437787668577657314e+02,4.401535402685040026e+02,5.560168052752196672e+02,6.049651999768902897e+02,4.573638173933577491e+02,4.612348773249614169e+02,8.691345394398667850e+02,5.037037972598409397e+02,9.523238182067871094e+00,-5.736890435218811035e-01,-1.032640218734741211e+00,3.570000000000000000e+02
4.251103055766288890e+02,5.763373454249522183e+02,6.244698553831185563e+02,6.017420855117088649e+02,5.055166096195316641e+02,5.779161490237675025e+02,7.008859700296306983e+02,6.215709168136017979e+02,9.523238182067871094e+00,-5.736890435218811035e-01,-1.032640218734741211e+00,3.580000000000000000e+02
3.731113990469893906e+02,5.712062088785132801e+02,6.683874897066707490e+02,6.469229632887727348e+02,5.452292689076421084e+02,6.029086514791633817e+02,6.451683055013563717e+02,6.485717598883784376e+02,9.523238182067871094e+00,-5.736890435218811035e-01,-1.032640218734741211e+00,3.590000000000000000e+02
4.613361370203347178e+02,4.246267192546511069e+02,6.224856641066799057e+02,6.741705000781366834e+02,5.188531728392990772e+02,4.972534777048422256e+02,7.738792844317649724e+02,5.441506219168804819e+02,9.523238182067871094e+00,-5.736890435218811035e-01,-1.032640218734741211e+00,3.600000000000000000e+02
5.702928305056120735e+02,3.318462022402418370e+02,5.456611514837859431e+02,6.407365135298459791e+02,4.604859824419181678e+02,4.021076036358135752e+02,9.044487449575390201e+02,4.489681723781905021e+02,9.523238182067871094e+00,-5.736890435218811035e-01,-1.032640218734741211e+00,3.610000000000000000e+02
5.519823868386156391e+02,4.145832139713747893e+02,5.394594633990855073e+02,5.885009052396344487e+02,4.474800681629421888e+02,4.443307318645383930e+02,8.524230244951322675e+02,4.894542293724662159e+02,9.523238182067871094e+00,-5.736890435218811035e-01,-1.032640218734741211e+00,3.620000000000000000e+02
4.343329929609753890e+02,5.532269399438082473e+02,6.083705993526527891e+02,5.863502550631310442e+02,4.936035778576115263e+02,5.616587722685871995e+02,6.868132364767079707e+02,6.036768376494001132e+02,9.523238182067871094e+00,-5.736890435218811035e-01,-1.032640218734741211e+00,3.630000000000000000e+02
3.828185508201713674e+02,5.523721186161346850e+02,6.539088493903691415e+02,6.332230403514404316e+02,5.306688847491896013e+02,5.885990028907617670e+02,6.342443697925336892e+02,6.285476381231637788e+02,9.523238182067871094e+00,-5.736890435218811035e-01,-1.032640218734741211e+00,3.640000000000000000e+02
4.716711542284901952e+02,4.105420775231759762e+02,6.100696497707249364e+02,6.594366778939584037e+02,5.028186034217796987e+02,4.846637056406252668e+02,7.638454546236171154e+02,5.257995932197809452e+02,9.484992027282714844e+00,-6.501809358596801758e-01,-1.070886254310607910e+00,3.650000000000000000e+02
5.812553281969157979e+02,3.212943205439805752e+02,5.338062785180227365e+02,6.245880722343281377e+02,4.438482760191327543e+02,3.897683596110582585e+02,8.939929706196126062e+02,4.339201820740781841e+02,9.484992027282714844e+00,-6.501809358596801758e-01,-1.070886254310607910e+00,3.660000000000000000e+02
5.634715376837411895e+02,4.054776497725542868e+02,5.265110103589613573e+02,5.733769907218666049e+02,4.313933215419674525e+02,4.308967011208587792e+02,8.416358566414855886e+02,4.763683333233202575e+02,9.484992027282714844e+00,-6.501809358596801758e-01,-1.070886254310607910e+00,3.670000000000000000e+02
4.463320517960673897e+02,5.443966932856492349e+02,5.944866428416498820e+02,5.725060780552157667e+02,4.799577009287677356e+02,5.472125664916602545e+02,6.757984630678256508e+02,5.916323749160001171e+02,9.484992027282714844e+00,-6.501809358596801758e-01,-1.070886254310607910e+00,3.680000000000000000e+02
3.951988388027530164e+02,5.434117548086651368e+02,6.399518791319860611e+02,6.189744856482502655e+02,5.196432939032238210e+02,5.744558262413047487e+02,6.219882135678781196e+02,6.179188717660581460e+02,9.484992027282714844e+00,-6.501809358596801758e-01,-1.070886254310607910e+00,3.690000000000000000e+02
4.842100188134209020e+02,4.006195495682331966e+02,5.953519004411864444e+02,6.459729098113311920e+02,4.915734211230883375e+02,4.718667174344591331e+02,7.514592212568240939e+02,5.152849069903313648e+02,9.484992027282714844e+00,-6.501809358596801758e-01,-1.070886254310607910e+00,3.700000000000000000e+02
5.937818829173920676e+02,3.098067819574134774e+02,5.165605215182149550e+02,6.150347635233920300e+02,4.295977240878710290e+02,3.781735725855614874e+02,8.835418036612682045e+02,4.204482738346778206e+02,9.484992027282714844e+00,-6.501809358596801758e-01,-1.070886254310607910e+00,3.710000000000000000e+02
5.757015870807372266e+02,3.927759595511597581e+02,5.065242091334366705e+02,5.674113029786240077e+02,4.146482825679122470e+02,4.194571996853992459e+02,8.343736430151038803e+02,4.593434682005172363e+02,9.484992027282714844e+00,-6.501809358596801758e-01,-1.070886254310607910e+00,3.720000000000000000e+02
4.576834516773960786e+02,5.302343317785998806e+02,5.739649634573797812e+02,5.666335527831179206e+02,4.635475939987372840e+02,5.345789597571492777e+02,6.700537439174077008e+02,5.741631912604352692e+02,9.484992027282714844e+00,-6.501809358596801758e-01,-1.070886254310607910e+00,3.730000000000000000e+02
4.049147838847129606e+02,5.260686117406658013e+02,6.213115713948209304e+02,6.115113310091255698e+02,5.056902069072166341e+02,5.598875177920563146e+02,6.156030916733725462e+02,6.025877603027256555e+02,9.484992027282714844e+00,-6.501809358596801758e-01,-1.070886254310607910e+00,3.740000000000000000e+02
4.918909812414931366e+02,3.790517061896243831e+02,5.789395862452438450e+02,6.378153602329184650e+02,4.802615565309242811e+02,4.562653910207081935e+02,7.444180818222957896e+02,5.014536136779715889e+02,9.484992027282714844e+00,-6.501809358596801758e-01,-1.070886254310607910e+00,3.750000000000000000e+02
6.002362702101236209e+02,2.855239232148160227e+02,5.010253516242810292e+02,6.066735874341320596e+02,4.197303418508163304e+02,3.633747805173989036e+02,8.766431709920871072e+02,4.064081155762105482e+02,9.484992027282714844e+00,-6.501809358596801758e-01,-1.070886254310607910e+00,3.760000000000000000e+02
5.830582812957873102e+02,3.691625800495239673e+02,4.905987414949922822e+02,5.586585189339748467e+02,4.044571381255955203e+02,4.058343307501199888e+02,8.275104975621507037e+02,4.441644341792634805e+02,9.484992027282714844e+00,-6.501809358596801758e-01,-1.070886254310607910e+00,3.770000000000000000e+02
4.678824966831598431e+02,5.112671003634677618e+02,5.569061533585918369e+02,5.579479720515373629e+02,4.515037378269189503e+02,5.204741142476195819e+02,6.628580093169293832e+02,5.568573607695143437e+02,9.484992027282714844e+00,-6.501809358596801758e-01,-1.070886254310607910e+00,3.780000000000000000e+02
4.181742856288619805e+02,5.148792347725247964e+02,6.023868601740105078e+02,6.028298209752247203e+02,4.912554415626218542e+02,5.438991570351936389e+02,6.084029219920921605e+02,5.823077547502325615e+02,9.484992027282714844e+00,-6.501809358596801758e-01,-1.070886254310607910e+00,3.790000000000000000e+02
5.071765546714013908e+02,3.753973736451589502e+02,5.582169257789792027e+02,6.274225281316103064e+02,4.639409928014283651e+02,4.385186368502036203e+02,7.378266432744276244e+02,4.791954588407461415e+02,9.484992027282714844e+00,-6.501809358596801758e-01,-1.070886254310607910e+00,3.800000000000000000e+02
6.166451072719792137e+02,2.851394994267320726e+02,4.805566344912222121e+02,5.930825321574229747e+02,4.023612253063256503e+02,3.440649218017788371e+02,8.711917501623101998e+02,3.845459852315107128e+02,9.484992027282714844e+00,-6.501809358596801758e-01,-1.070886254310607910e+00,3.810000000000000000e+02
6.001441988687147386e+02,3.672762007070705295e+02,4.729068668027903186e+02,5.423178786122225574e+02,3.864942759364566882e+02,3.845367594597773859e+02,8.236811813653912395e+02,4.242439756468229461e+02,9.484992027282714844e+00,-6.501809358596801758e-01,-1.070886254310607910e+00,3.820000000000000000e+02
4.856145560500444844e+02,5.059754838994122110e+02,5.419508121841499815e+02,5.405463616891283891e+02,4.330272624894278124e+02,4.976207473636750365e+02,6.605206470118428115e+02,5.391787925263051875e+02,9.484992027282714844e+00,-6.501809358596801758e-01,-1.070886254310607910e+00,3.830000000000000000e+02
4.373881873428035760e+02,5.063815690324408934e+02,5.878614160267024999e+02,5.864371055994561175e+02,4.725862556016509188e+02,5.208297723977739224e+02,6.064535184894484701e+02,5.668758952015341492e+02,9.484992027282714844e+00,-6.501809358596801758e-01,-1.070886254310607910e+00,3.840000000000000000e+02
5.291922125430719461e+02,3.643426057189426501e+02,5.431318667316445499e+02,6.137635397470294265e+02,4.458670825492517906e+02,4.150286288379720645e+02,7.351159232703503221e+02,4.655344902709330199e+02,9.484992027282714844e+00,-6.501809358596801758e-01,-1.070886254310607910e+00,3.850000000000000000e+02
6.409413579984247917e+02,2.732470593836405897e+02,4.662152985738357529e+02,5.819079664783421322e+02,3.854601854209104204e+02,3.180804409852935351e+02,8.653092750034993514e+02,3.712328099706355715e+02,9.484992027282714844e+00,-6.501809358596801758e-01,-1.070886254310607910e+00,3.860000000000000000e+02
6.262797640239441535e+02,3.567306117551343050e+02,4.594799310040834825e+02,5.314092644632473821e+02,3.700887222427918459e+02,3.551608490370272193e+02,8.155784687131963437e+02,4.095291417534390348e+02,9.484992027282714844e+00,-6.501809358596801758e-01,-1.070886254310607910e+00,3.870000000000000000e+02
5.130892970997665543e+02,4.969045841513070627e+02,5.275620202847203473e+02,5.292924030420108465e+02,4.163267108907020884e+02,4.676069570165709592e+02,6.515799602050974499e+02,5.224979220912719029e+02,9.484992027282714844e+00,-6.501809358596801758e-01,-1.070886254310607910e+00,3.880000000000000000e+02
4.653914825346291764e+02,4.962156853134292760e+02,5.721296127999594319e+02,5.770881101338454755e+02,4.563573808483997709e+02,4.941296008907011128e+02,5.978088153226854047e+02,5.493937249667142169e+02,9.484992027282714844e+00,-6.501809358596801758e-01,-1.070886254310607910e+00,3.890000000000000000e+02
5.564383164092432708e+02,3.506688004032475874e+02,5.284792089788898011e+02,6.077941363262507366e+02,4.319679590764499153e+02,3.930977204394221189e+02,7.271719938637834275e+02,4.492689317248368752e+02,9.446745872497558594e+00,-4.971971809864044189e-01,-1.109132170677185059e+00,3.900000000000000000e+02
6.678311317120678723e+02,2.556916110036690952e+02,4.538757541162267444e+02,5.777177083403148572e+02,3.743584112814714899e+02,2.997778588018409209e+02,8.601775530938175507e+02,3.571340110719611403e+02,9.446745872497558594e+00,-4.971971809864044189e-01,-1.109132170677185059e+00,3.910000000000000000e+02
6.532109832277928945e+02,3.363524278279364808e+02,4.477974434819843736e+02,5.271765174502870650e+02,3.604538418355077738e+02,3.396430412439949578e+02,8.126178825570241315e+02,3.969244284037340549e+02,9.446745872497558594e+00,-4.971971809864044189e-01,-1.109132170677185059e+00,3.920000000000000000e+02
5.396223034725408070e+02,4.752894000138330739e+02,5.152917906908623991e+02,5.247551784855459118e+02,4.065081692320381990e+02,4.547240033353882609e+02,6.491134497273887973e+02,5.104046697931553354e+02,9.446745872497558594e+00,-4.971971809864044189e-01,-1.109132170677185059e+00,3.930000000000000000e+02
4.900604262937558815e+02,4.758829550234368071e+02,5.596772943777614273e+02,5.718656024745578179e+02,4.452411537755178870e+02,4.827879505806340603e+02,5.933508345517038833e+02,5.374577670865837717e+02,9.446745872497558594e+00,-4.971971809864044189e-01,-1.109132170677185059e+00,3.940000000000000000e+02
5.793406138146237936e+02,3.342484035530651454e+02,5.143050765241423505e+02,6.009731270152697107e+02,4.183390973893838236e+02,3.812777205979946302e+02,7.197428164711018326e+02,4.366720378476020414e+02,9.446745872497558594e+00,-4.971971809864044189e-01,-1.109132170677185059e+00,3.950000000000000000e+02
6.913093888161238283e+02,2.434182241224989411e+02,4.346051477916407748e+02,5.696486870563821867e+02,3.576073733773373533e+02,2.867154001187227550e+02,8.516482617353904061e+02,3.427716584823429002e+02,9.446745872497558594e+00,-4.971971809864044189e-01,-1.109132170677185059e+00,3.960000000000000000e+02
