F3,F4,C3,C4,P3,P4,Cz,Pz,Accel_x,Accel_y,Accel_z,Sample
4.229150363244116306e-11,6.593836587853729725e-12,2.046363078989088535e-11,2.228262019343674183e-11,7.275957614183425903e-12,-8.640199666842818260e-12,3.910827217623591423e-11,9.549694368615746498e-12,9.446745872497558594e+00,-7.266727685928344727e-01,-1.262115836143493652e+00,0.000000000000000000e+00
-6.559299669499437186e+02,-5.578231426358904628e+02,-4.391319646396075314e+02,-6.291141748591212490e+02,-4.172959534443937173e+02,-3.213729333218345801e+02,-8.571708250435312948e+02,-3.177569418605080500e+02,9.446745872497558594e+00,-7.266727685928344727e-01,-1.262115836143493652e+00,1.000000000000000000e+00
-1.257106675426660786e+03,-9.460333317788417844e+02,-1.026571605354415169e+03,-1.067624162534654943e+03,-7.978277358795644432e+02,-5.835425281148798149e+02,-1.571794149015606308e+03,-5.258046041906088703e+02,9.446745872497558594e+00,-7.266727685928344727e-01,-1.262115836143493652e+00,2.000000000000000000e+00
-1.647833563306167434e+03,-1.185862586332235423e+03,-1.648234896512997921e+03,-1.380489310027463944e+03,-1.199621265203369603e+03,-8.288425326117383065e+02,-2.466544328229972052e+03,-6.989347717271575675e+02,9.446745872497558594e+00,-7.266727685928344727e-01,-1.262115836143493652e+00,3.000000000000000000e+00
-1.809696024841139661e+03,-1.384818184401701046e+03,-2.077690655827846058e+03,-1.702488383335210301e+03,-1.628986731497140681e+03,-1.095870448260179501e+03,-3.614211745428023278e+03,-9.242750903318590190e+02,9.446745872497558594e+00,-7.266727685928344727e-01,-1.262115836143493652e+00,4.000000000000000000e+00
-1.937445514891252515e+03,-1.605323902454564177e+03,-2.288522972413325533e+03,-1.983392474832074186e+03,-1.971985919500235468e+03,-1.355370880141453654e+03,-4.488434932401354672e+03,-1.156464533953063437e+03,9.446745872497558594e+00,-7.266727685928344727e-01,-1.262115836143493652e+00,5.000000000000000000e+00
-2.199808953961400675e+03,-1.902303500066725064e+03,-2.457670109039644103e+03,-2.116589715491822972e+03,-2.187010542989803071e+03,-1.617940650373490598e+03,-5.039265616225167832e+03,-1.377860031805456856e+03,9.446745872497558594e+00,-7.266727685928344727e-01,-1.262115836143493652e+00,6.000000000000000000e+00
-2.535890372767729787e+03,-2.312388988548755151e+03,-2.718745601011178678e+03,-2.181571131018971755e+03,-2.408508693877133737e+03,-1.961750382976077617e+03,-5.761634372141439599e+03,-1.681568467027920860e+03,9.446745872497558594e+00,-7.266727685928344727e-01,-1.262115836143493652e+00,7.000000000000000000e+00
-2.852082529306138895e+03,-2.711135347710965107e+03,-3.022457227187757326e+03,-2.336249887673230660e+03,-2.721038270328914223e+03,-2.347147767965461753e+03,-6.623457585369029403e+03,-2.042118245020430550e+03,9.446745872497558594e+00,-7.266727685928344727e-01,-1.262115836143493652e+00,8.000000000000000000e+00
-3.265986574635399847e+03,-2.881003346270616930e+03,-3.223890230025979690e+03,-2.551755967204612261e+03,-2.989720258294044470e+03,-2.572195781324019663e+03,-7.357803263071102265e+03,-2.242449404109993338e+03,9.446745872497558594e+00,-7.266727685928344727e-01,-1.262115836143493652e+00,9.000000000000000000e+00
-3.987936532336128039e+03,-2.828186740396122332e+03,-3.258751532060629870e+03,-2.654652682983759405e+03,-3.065685435022979618e+03,-2.554136689927835505e+03,-8.543563494668025669e+03,-2.199753233562764763e+03,9.446745872497558594e+00,-7.266727685928344727e-01,-1.262115836143493652e+00,1.000000000000000000e+01
-4.898984933533563890e+03,-2.863323258223506400e+03,-3.245581985142584472e+03,-2.614806679123578760e+03,-3.061396400911660749e+03,-2.537626873459434591e+03,-1.040338003278716133e+04,-2.170441103186188229e+03,9.446745872497558594e+00,-7.266727685928344727e-01,-1.262115836143493652e+00,1.100000000000000000e+01
-5.589958861437726227e+03,-3.188194555046615278e+03,-3.361163652025479678e+03,-2.598082854366028641e+03,-3.209807666333478210e+03,-2.788139477830016403e+03,-1.165016491964646411e+04,-2.401481330003141466e+03,9.446745872497558594e+00,-7.266727685928344727e-01,-1.262115836143493652e+00,1.200000000000000000e+01
-6.042964613849124362e+03,-3.531713718533446809e+03,-3.575089964242281894e+03,-2.693152312522480315e+03,-3.469242957086409660e+03,-3.130822179843793947e+03,-1.185928437051863148e+04,-2.710360995137635200e+03,9.446745872497558594e+00,-7.266727685928344727e-01,-1.262115836143493652e+00,1.300000000000000000e+01
-6.600820980357035296e+03,-3.508452367236282498e+03,-3.663708285967371012e+03,-2.782273817846287784e+03,-3.565358054707461179e+03,-3.165408192601478731e+03,-1.261568256136662603e+04,-2.733605842717338419e+03,9.446745872497558594e+00,-7.266727685928344727e-01,-1.262115836143493652e+00,1.400000000000000000e+01
-7.036891935953763095e+03,-3.270997307994529365e+03,-3.571936807419287561e+03,-2.767273767578052684e+03,-3.480559852151752693e+03,-2.958106765044495660e+03,-1.398046803508047014e+04,-2.534147038781641641e+03,9.446745872497558594e+00,-7.266727685928344727e-01,-1.262115836143493652e+00,1.500000000000000000e+01
-6.927044832766150648e+03,-3.320681445121803335e+03,-3.517280957595022301e+03,-2.716051063347669697e+03,-3.496589932133541879e+03,-2.977628556766982911e+03,-1.397888572728045074e+04,-2.522156273421999686e+03,9.446745872497558594e+00,-7.266727685928344727e-01,-1.262115836143493652e+00,1.600000000000000000e+01
-7.021618798317726032e+03,-3.659081479291131927e+03,-3.612846475281626681e+03,-2.689191817950903896e+03,-3.651592073420344150e+03,-3.259904274986693963e+03,-1.352187164544550251e+04,-2.753063536522410686e+03,9.446745872497558594e+00,-7.266727685928344727e-01,-1.262115836143493652e+00,1.700000000000000000e+01
-8.129644511803485329e+03,-3.789231049339676247e+03,-3.700782918792538112e+03,-2.658463756151996677e+03,-3.690171939551286414e+03,-3.359052206592300536e+03,-1.545681318563327113e+04,-2.861895532828530122e+03,9.446745872497558594e+00,-7.266727685928344727e-01,-1.262115836143493652e+00,1.800000000000000000e+01
-8.885195045178732471e+03,-3.626581714896668927e+03,-3.685407640620038819e+03,-2.659846847439536305e+03,-3.640054709708914743e+03,-3.231230058902187011e+03,-1.771908868292032639e+04,-2.759939654294215416e+03,9.446745872497558594e+00,-7.266727685928344727e-01,-1.262115836143493652e+00,1.900000000000000000e+01
-7.855832296106693320e+03,-3.577460788579669497e+03,-3.656461767838562537e+03,-2.726343634037159063e+03,-3.739298168342636018e+03,-3.253776537078555975e+03,-1.648063667713854375e+04,-2.721914635170797737e+03,9.446745872497558594e+00,-7.266727685928344727e-01,-1.262115836143493652e+00,2.000000000000000000e+01
-7.125159746175999317e+03,-3.651206392243173923e+03,-3.601877630270555983e+03,-2.680996254842142662e+03,-3.784285002096414701e+03,-3.319981150894106577e+03,-1.560835615113286622e+04,-2.733356884691660525e+03,9.446745872497558594e+00,-7.266727685928344727e-01,-1.262115836143493652e+00,2.100000000000000000e+01
-8.989116660529816727e+03,-3.530430606335015000e+03,-3.462411165054982121e+03,-2.423765524188494055e+03,-3.492839838329391569e+03,-3.082977544903246780e+03,-2.024724732328984464e+04,-2.583449261133153414e+03,9.446745872497558594e+00,-7.266727685928344727e-01,-1.262115836143493652e+00,2.200000000000000000e+01
-1.002478885003488176e+04,-3.576810889627722190e+03,-3.497925419878462890e+03,-2.351992864058927807e+03,-3.458310997881543244e+03,-3.097527038717683354e+03,-2.240014684480322467e+04,-2.628013733305468577e+03,9.446745872497558594e+00,-7.266727685928344727e-01,-1.262115836143493652e+00,2.300000000000000000e+01
-4.903792484168439842e+03,-4.525194808119359550e+03,-4.025642530826235088e+03,-2.906725510247932107e+03,-4.521688568478272828e+03,-4.276096918052724504e+03,-9.613241298275712325e+03,-3.454195338362373604e+03,9.446745872497558594e+00,-7.266727685928344727e-01,-1.262115836143493652e+00,2.400000000000000000e+01
4.281021810004491272e+03,-6.068088583999885486e+03,-4.780649078525504592e+03,-3.763770360669617730e+03,-6.208670881142634244e+03,-6.158644955145626227e+03,1.256548472971806405e+04,-4.735101622000481257e+03,9.484992027282714844e+00,-8.031646609306335449e-01,-1.185624003410339355e+00,2.500000000000000000e+01
9.694073240318390162e+03,-7.037911355429236210e+03,-5.161339467063578013e+03,-4.161972259196151754e+03,-7.143354398888447577e+03,-7.267940297148635182e+03,2.511687827363969336e+04,-5.483312994779897963e+03,9.484992027282714844e+00,-8.031646609306335449e-01,-1.185624003410339355e+00,2.600000000000000000e+01
8.840345258509887572e+03,-7.085189383498876850e+03,-5.093853529465914107e+03,-3.987906946684218383e+03,-7.016133938626599047e+03,-7.228926747799133409e+03,2.277370060947436286e+04,-5.470893670332459806e+03,9.484992027282714844e+00,-8.031646609306335449e-01,-1.185624003410339355e+00,2.700000000000000000e+01
6.759799730186988199e+03,-6.919902743813946472e+03,-5.013151592273079586e+03,-3.811383492916360410e+03,-6.769933147849571469e+03,-7.004103383648498493e+03,1.812852961764761494e+04,-5.341900075533253585e+03,9.484992027282714844e+00,-8.031646609306335449e-01,-1.185624003410339355e+00,2.800000000000000000e+01
7.049470465200892249e+03,-6.927733735243198680e+03,-5.062694155068981672e+03,-3.897616115955874648e+03,-6.896030218835218875e+03,-7.092703155490855352e+03,1.891463401074919966e+04,-5.386878759163932955e+03,9.484992027282714844e+00,-8.031646609306335449e-01,-1.185624003410339355e+00,2.900000000000000000e+01
7.861228094859258817e+03,-6.830774713005043850e+03,-4.995282366162259677e+03,-3.938037622728956194e+03,-6.948667238914713380e+03,-7.067010359014709138e+03,1.983360206169416415e+04,-5.303611262289787192e+03,9.484992027282714844e+00,-8.031646609306335449e-01,-1.185624003410339355e+00,3.000000000000000000e+01
7.340426023149697357e+03,-6.640022156049719342e+03,-4.797589802672501719e+03,-3.760224934913654124e+03,-6.728493821539120290e+03,-6.825915627107644468e+03,1.737538424895726348e+04,-5.087645250399636097e+03,9.484992027282714844e+00,-8.031646609306335449e-01,-1.185624003410339355e+00,3.100000000000000000e+01
6.643481997736674202e+03,-6.715805311022917522e+03,-4.744494981137027935e+03,-3.602937529761092719e+03,-6.633330256295566869e+03,-6.821785694372094440e+03,1.566493762845871061e+04,-5.100195517616985853e+03,9.484992027282714844e+00,-8.031646609306335449e-01,-1.185624003410339355e+00,3.200000000000000000e+01
6.660629222141953505e+03,-6.940300448049694751e+03,-4.855462055076193792e+03,-3.620365296036872678e+03,-6.777494750983872109e+03,-7.050274932282311966e+03,1.627706041248716429e+04,-5.294367060335879614e+03,9.484992027282714844e+00,-8.031646609306335449e-01,-1.185624003410339355e+00,3.300000000000000000e+01
6.548900722374150973e+03,-6.855791709717953381e+03,-4.856423997057942870e+03,-3.656944233929188613e+03,-6.809234688498659125e+03,-7.026760084876237670e+03,1.573168936816624228e+04,-5.259698413442696619e+03,9.484992027282714844e+00,-8.031646609306335449e-01,-1.185624003410339355e+00,3.400000000000000000e+01
6.059834988181542940e+03,-6.523611693121960343e+03,-4.670732117038153774e+03,-3.576319159942029728e+03,-6.623787265310116709e+03,-6.720647124414483187e+03,1.353397162106331962e+04,-4.978414858565237409e+03,9.484992027282714844e+00,-8.031646609306335449e-01,-1.185624003410339355e+00,3.500000000000000000e+01
5.968870361335331836e+03,-6.419301363847403991e+03,-4.515217780403168035e+03,-3.440602586995137244e+03,-6.490976110855321167e+03,-6.576859695205643220e+03,1.252641406546617145e+04,-4.834430787883975427e+03,9.484992027282714844e+00,-8.031646609306335449e-01,-1.185624003410339355e+00,3.600000000000000000e+01
6.291969752629913273e+03,-6.616846268004152080e+03,-4.522604848044572464e+03,-3.345100295883870785e+03,-6.525631304460904175e+03,-6.717243403605753883e+03,1.252398743729066337e+04,-4.951626683698395937e+03,9.484992027282714844e+00,-8.031646609306335449e-01,-1.185624003410339355e+00,3.700000000000000000e+01
6.377704803266706222e+03,-6.731678441120088792e+03,-4.580374815181925442e+03,-3.308111773365693807e+03,-6.571898760615898027e+03,-6.823507134248300645e+03,1.142157867959909527e+04,-5.060197136887023589e+03,9.484992027282714844e+00,-8.031646609306335449e-01,-1.185624003410339355e+00,3.800000000000000000e+01
6.206584072469731836e+03,-6.557394089358371275e+03,-4.537792318675647039e+03,-3.298208578754333757e+03,-6.521307414232969677e+03,-6.699946946401859350e+03,9.926666165583024849e+03,-4.957539767903985194e+03,9.484992027282714844e+00,-8.031646609306335449e-01,-1.185624003410339355e+00,3.900000000000000000e+01
6.117545572676592201e+03,-6.295499454937028531e+03,-4.387005247110864730e+03,-3.251882975699501003e+03,-6.408006968054870413e+03,-6.482078998261777997e+03,9.323007207424230728e+03,-4.743083717461070592e+03,9.484992027282714844e+00,-8.031646609306335449e-01,-1.185624003410339355e+00,4.000000000000000000e+01
6.072849416087777172e+03,-6.213981166061005752e+03,-4.242956138587358510e+03,-3.131785319132362019e+03,-6.299435999603696473e+03,-6.376746813731315342e+03,8.399159777297443725e+03,-4.627427056505229302e+03,9.484992027282714844e+00,-8.031646609306335449e-01,-1.185624003410339355e+00,4.100000000000000000e+01
6.035236644028407682e+03,-6.332302641299577772e+03,-4.210716532730584731e+03,-3.005949656359299297e+03,-6.256399032083934799e+03,-6.437755830893655911e+03,6.743453092991932863e+03,-4.684158282498869085e+03,9.484992027282714844e+00,-8.031646609306335449e-01,-1.185624003410339355e+00,4.200000000000000000e+01
6.155540086921815600e+03,-6.428963543038511489e+03,-4.256311919864576339e+03,-2.969149967908169401e+03,-6.281245829903751655e+03,-6.528703851018749447e+03,6.124398905315881166e+03,-4.775108719118064073e+03,9.484992027282714844e+00,-8.031646609306335449e-01,-1.185624003410339355e+00,4.300000000000000000e+01
6.250002176893429350e+03,-6.303485965794096046e+03,-4.233312318356750438e+03,-2.988692208287137419e+03,-6.271329977926307038e+03,-6.460035507345131009e+03,6.052537279590448634e+03,-4.705785450964008305e+03,9.484992027282714844e+00,-8.031646609306335449e-01,-1.185624003410339355e+00,4.400000000000000000e+01
6.020232133710045673e+03,-6.040651866513620007e+03,-4.081353202965749460e+03,-2.943796704246831723e+03,-6.150572348727856479e+03,-6.237595929747416449e+03,4.147737463528268563e+03,-4.485155489542197756e+03,9.484992027282714844e+00,-8.031646609306335449e-01,-1.185624003410339355e+00,4.500000000000000000e+01
5.764878379997184311e+03,-5.924254047514275044e+03,-3.925816149741865956e+03,-2.808535045986554906e+03,-6.006974969353687811e+03,-6.091318457262226730e+03,1.897649699514375243e+03,-4.339639415302183806e+03,9.484992027282714844e+00,-8.031646609306335449e-01,-1.185624003410339355e+00,4.600000000000000000e+01
5.924807508355991558e+03,-6.043505574372919000e+03,-3.903269673197561588e+03,-2.686424896828424153e+03,-5.969903214336643941e+03,-6.155246755720911096e+03,2.371917180405689578e+03,-4.399411826157072937e+03,9.484992027282714844e+00,-8.031646609306335449e-01,-1.185624003410339355e+00,4.700000000000000000e+01
6.162853845775371155e+03,-6.149900386651929693e+03,-3.961677165877479638e+03,-2.656898736603066936e+03,-6.010514117206095762e+03,-6.257863929794278192e+03,2.713133240410862072e+03,-4.501741589570924589e+03,9.484992027282714844e+00,-8.031646609306335449e-01,-1.185624003410339355e+00,4.800000000000000000e+01
5.918948361883682992e+03,-6.008290330662544875e+03,-3.934253747250850665e+03,-2.669997353691343051e+03,-5.986873460743884607e+03,-6.167135000481112002e+03,-1.190764406455646167e+03,-4.420529486444148461e+03,9.484992027282714844e+00,-8.031646609306335449e-01,-1.185624003410339355e+00,4.900000000000000000e+01
5.611762318389133725e+03,-5.735285239305691903e+03,-3.774552446564511683e+03,-2.622845315063485486e+03,-5.850960188774804010e+03,-5.926307398211504733e+03,-3.721987904684305249e+03,-4.187940157346746673e+03,9.484992027282714844e+00,-8.031646609306335449e-01,-1.185624003410339355e+00,5.000000000000000000e+01
6.157687108863223330e+03,-5.632871060059747833e+03,-3.617431866701539548e+03,-2.498859144993570681e+03,-5.708927716111958944e+03,-5.787209527623024769e+03,4.402582606762895011e+03,-4.045258219794675824e+03,9.484992027282714844e+00,-8.031646609306335449e-01,-1.185624003410339355e+00,5.100000000000000000e+01
7.410832740178353561e+03,-5.763201451658783299e+03,-3.590288833949296532e+03,-2.386505690046432846e+03,-5.668223268927955360e+03,-5.853312922720680945e+03,1.953323577465982817e+04,-4.104248420379241907e+03,9.484992027282714844e+00,-7.649186849594116211e-01,-1.262115836143493652e+00,5.200000000000000000e+01
8.227280517655701260e+03,-5.865366531447887610e+03,-3.640885701217639962e+03,-2.358759684946811376e+03,-5.694783077083207900e+03,-5.943065946763264037e+03,2.798334808226738460e+04,-4.197073689374448804e+03,9.484992027282714844e+00,-7.649186849594116211e-01,-1.262115836143493652e+00,5.300000000000000000e+01
8.108355927525030893e+03,-5.719644714655124517e+03,-3.613501896065941764e+03,-2.374295375642152067e+03,-5.666769520645484590e+03,-5.849029931067085272e+03,2.568116100169390120e+04,-4.113773032294343466e+03,9.484992027282714844e+00,-7.649186849594116211e-01,-1.262115836143493652e+00,5.400000000000000000e+01
7.691908400329357391e+03,-5.443269792658888036e+03,-3.460582053302007807e+03,-2.330386391151756470e+03,-5.536836293159463821e+03,-5.615395162237678960e+03,2.153199003499622995e+04,-3.887276599758180055e+03,9.484992027282714844e+00,-7.649186849594116211e-01,-1.262115836143493652e+00,5.500000000000000000e+01
7.619586523122228755e+03,-5.332148894869673313e+03,-3.308916394324616249e+03,-2.206157171962679513e+03,-5.400646289240673468e+03,-5.477810696901716256e+03,2.143774268766120076e+04,-3.749889296210943030e+03,9.484992027282714844e+00,-7.649186849594116211e-01,-1.262115836143493652e+00,5.600000000000000000e+01
7.774940202991577280e+03,-5.453034251960280017e+03,-3.283350967280739951e+03,-2.091242118330244921e+03,-5.363457293863009909e+03,-5.537596529770987217e+03,2.180871806881369776e+04,-3.811017783756898098e+03,9.484992027282714844e+00,-7.649186849594116211e-01,-1.262115836143493652e+00,5.700000000000000000e+01
7.823827189044570332e+03,-5.551823698357356989e+03,-3.334092497191110851e+03,-2.061538212817205931e+03,-5.393505197148451771e+03,-5.624521673383862435e+03,1.986028681768471142e+04,-3.906389475690421932e+03,9.484992027282714844e+00,-7.649186849594116211e-01,-1.262115836143493652e+00,5.800000000000000000e+01
7.727965465468905677e+03,-5.404074205693550539e+03,-3.306016172686584014e+03,-2.074601090794592892e+03,-5.366194459202357393e+03,-5.532783454085064477e+03,1.830011102835767088e+04,-3.826400718032790792e+03,9.484992027282714844e+00,-7.649186849594116211e-01,-1.262115836143493652e+00,5.900000000000000000e+01
7.578178325763386965e+03,-5.124049245378280830e+03,-3.153300379401855025e+03,-2.029264679517854347e+03,-5.237334238904804806e+03,-5.302551585714079920e+03,1.842563990640340489e+04,-3.604998529818227780e+03,9.484992027282714844e+00,-7.649186849594116211e-01,-1.262115836143493652e+00,6.000000000000000000e+01
7.449728230135006925e+03,-5.006792708897994089e+03,-3.002573628103074043e+03,-1.906129149135093940e+03,-5.104210394080982951e+03,-5.163202061865774340e+03,1.787166890564337882e+04,-3.470681078572421029e+03,9.484992027282714844e+00,-7.649186849594116211e-01,-1.262115836143493652e+00,6.100000000000000000e+01
7.448583289800458260e+03,-5.121358462506541400e+03,-2.977292078184318598e+03,-1.794545721686597972e+03,-5.069569413523355252e+03,-5.218552438731854636e+03,1.603100737087223024e+04,-3.530254020611604119e+03,9.484992027282714844e+00,-7.649186849594116211e-01,-1.262115836143493652e+00,6.200000000000000000e+01
7.556539341982138467e+03,-5.217013438555508401e+03,-3.026882427832871144e+03,-1.769190305924090808e+03,-5.098390980754673365e+03,-5.304764484376779365e+03,1.488667299299586921e+04,-3.622757763466196138e+03,9.484992027282714844e+00,-7.649186849594116211e-01,-1.262115836143493652e+00,6.300000000000000000e+01
7.550571830895130006e+03,-5.071259899138026412e+03,-2.997620236200206818e+03,-1.786791489010474834e+03,-5.066787603492992275e+03,-5.214983311503910954e+03,1.466165955508551815e+04,-3.542769230112257901e+03,9.484992027282714844e+00,-7.649186849594116211e-01,-1.262115836143493652e+00,6.400000000000000000e+01
7.339739882020096957e+03,-4.797455624573703062e+03,-2.846215662718213935e+03,-1.745771865904313472e+03,-4.933940940755718657e+03,-4.984052070925334192e+03,1.381979472153089955e+04,-3.323538574893763780e+03,9.484992027282714844e+00,-7.649186849594116211e-01,-1.262115836143493652e+00,6.500000000000000000e+01
7.160221515334778815e+03,-4.687127679367890778e+03,-2.699721723502118039e+03,-1.626965776929322146e+03,-4.797936347682474661e+03,-4.842317314896401513e+03,1.242777701492522283e+04,-3.190676554481235144e+03,9.484992027282714844e+00,-7.649186849594116211e-01,-1.262115836143493652e+00,6.600000000000000000e+01
7.212843970295588406e+03,-4.806505915133280723e+03,-2.679509619131169075e+03,-1.520601230664137802e+03,-4.759419454213176323e+03,-4.898313376516565768e+03,1.154579143176645266e+04,-3.250613223721939903e+03,9.484992027282714844e+00,-7.649186849594116211e-01,-1.262115836143493652e+00,6.700000000000000000e+01
7.343921775580839494e+03,-4.906422657072400398e+03,-2.733773954097446222e+03,-1.501434629428119024e+03,-4.783278594092250387e+03,-4.987131073868147723e+03,1.078731309457796669e+04,-3.343376125991577283e+03,9.484992027282714844e+00,-7.649186849594116211e-01,-1.262115836143493652e+00,6.800000000000000000e+01
7.292992362032486199e+03,-4.767950253997139043e+03,-2.709311070677990301e+03,-1.525383534202124338e+03,-4.748426845406333996e+03,-4.897811133858767789e+03,9.545176298074889928e+03,-3.263132212723645353e+03,9.484992027282714844e+00,-7.649186849594116211e-01,-1.262115836143493652e+00,6.900000000000000000e+01
7.072940732518984078e+03,-4.503283571400756955e+03,-2.562156956022847226e+03,-1.491084330040982422e+03,-4.614683514649160315e+03,-4.666530613143315350e+03,8.615179795311982161e+03,-3.042304844008960572e+03,9.484992027282714844e+00,-7.649186849594116211e-01,-1.262115836143493652e+00,7.000000000000000000e+01
6.920981138977436785e+03,-4.397785547078204218e+03,-2.417120993085287864e+03,-1.379758379850209167e+03,-4.477002135721962986e+03,-4.526543740044879087e+03,8.219552781007456360e+03,-2.906843677494737221e+03,9.484992027282714844e+00,-7.649186849594116211e-01,-1.262115836143493652e+00,7.100000000000000000e+01
6.962791183792935954e+03,-4.514320252430156870e+03,-2.395041028224715319e+03,-1.279281945542128597e+03,-4.434229765808043339e+03,-4.582926230013972599e+03,7.060267661880228843e+03,-2.963964995845469730e+03,9.484992027282714844e+00,-7.649186849594116211e-01,-1.262115836143493652e+00,7.200000000000000000e+01
7.061993078651124961e+03,-4.607223801546809227e+03,-2.446495169529934628e+03,-1.261355222856186629e+03,-4.453853322852034580e+03,-4.666503914565730156e+03,5.226673568204083494e+03,-3.054523695857410530e+03,9.484992027282714844e+00,-7.649186849594116211e-01,-1.262115836143493652e+00,7.300000000000000000e+01
7.010374750256863081e+03,-4.462945928073904724e+03,-2.421588892798287816e+03,-1.283225856767908681e+03,-4.418192563252485343e+03,-4.570397024006248103e+03,4.602383123791461912e+03,-2.974200364456443367e+03,9.484992027282714844e+00,-7.649186849594116211e-01,-1.262115836143493652e+00,7.400000000000000000e+01
6.802378102928644694e+03,-4.195501355258131298e+03,-2.278323926755576394e+03,-1.247920870268196268e+03,-4.287555280913394199e+03,-4.337660879721221136e+03,4.929456255737573883e+03,-2.756531551119645428e+03,9.484992027282714844e+00,-7.649186849594116211e-01,-1.262115836143493652e+00,7.500000000000000000e+01
6.645771997219430887e+03,-4.088986957120035186e+03,-2.140194476893249430e+03,-1.137984632685114775e+03,-4.155139807126151936e+03,-4.200594413017784973e+03,3.938986434232061583e+03,-2.626011574080730497e+03,9.484992027282714844e+00,-7.649186849594116211e-01,-1.262115836143493652e+00,7.600000000000000000e+01
6.681731455181394267e+03,-4.204968920504775269e+03,-2.124111012613610001e+03,-1.038996489830706651e+03,-4.117710088027029997e+03,-4.258268490192659556e+03,2.256830068290385498e+03,-2.686592473174675888e+03,9.484992027282714844e+00,-7.649186849594116211e-01,-1.262115836143493652e+00,7.700000000000000000e+01
6.785968908961867783e+03,-4.298049089786522018e+03,-2.179170859923381158e+03,-1.021362964131918943e+03,-4.141294744879407517e+03,-4.340011629212671323e+03,2.276145271072815376e+03,-2.777763543330409902e+03,9.484992027282714844e+00,-7.649186849594116211e-01,-1.262115836143493652e+00,7.800000000000000000e+01
6.736044783487161112e+03,-4.155920070277412378e+03,-2.158232082806619928e+03,-1.043035236582391462e+03,-4.108077469886358813e+03,-4.241983334551808184e+03,2.231853877720979654e+03,-2.697213975753052637e+03,9.484992027282714844e+00,-7.649186849594116211e-01,-1.262115836143493652e+00,7.900000000000000000e+01
6.521653782146033336e+03,-3.892336652809491170e+03,-2.019738386618353616e+03,-1.007248354182213916e+03,-3.979056350362435296e+03,-4.008373854087449217e+03,-7.219201530204227311e+02,-2.480541598540564792e+03,9.484992027282714844e+00,-7.649186849594116211e-01,-1.262115836143493652e+00,8.000000000000000000e+01
6.362846459764903557e+03,-3.788407405660124823e+03,-1.882575871311844367e+03,-8.964228888145439669e+02,-3.847522482591538392e+03,-3.869691271300801873e+03,-2.040991155927428736e+03,-2.351093423802640700e+03,9.484992027282714844e+00,-7.649186849594116211e-01,-1.262115836143493652e+00,8.100000000000000000e+01
6.401554143260696947e+03,-3.903109038060533749e+03,-1.862753569477438305e+03,-7.971658386463777788e+02,-3.810430534844649628e+03,-3.924518012157091107e+03,5.404582865134732856e+03,-2.410816277284104217e+03,9.484992027282714844e+00,-7.649186849594116211e-01,-1.262115836143493652e+00,8.200000000000000000e+01
6.507445987243384479e+03,-3.992112425330526094e+03,-1.916101115491174824e+03,-7.807328011082508965e+02,-3.835512659274609177e+03,-4.005098059940730764e+03,1.831782795549350703e+04,-2.500762985896608825e+03,9.484992027282714844e+00,-8.414105772972106934e-01,-1.262115836143493652e+00,8.300000000000000000e+01
6.457930005984529998e+03,-3.845826680992833644e+03,-1.899146718229622365e+03,-8.044202094479592233e+02,-3.806058845394923992e+03,-3.911074563029697401e+03,2.561104231420952419e+04,-2.422330061705879416e+03,9.484992027282714844e+00,-8.414105772972106934e-01,-1.262115836143493652e+00,8.400000000000000000e+01
6.245342784519178167e+03,-3.579181795641929511e+03,-1.765021137184633972e+03,-7.709865509054343420e+02,-3.681028666940967923e+03,-3.685827614438047931e+03,2.420562810315157549e+04,-2.211275202063620327e+03,9.484992027282714844e+00,-8.414105772972106934e-01,-1.262115836143493652e+00,8.500000000000000000e+01
6.086628823357492365e+03,-3.474229157962963200e+03,-1.628522573462712444e+03,-6.636984107717817096e+02,-3.551173318207960165e+03,-3.554315212432859425e+03,2.132364884545405948e+04,-2.087295035202263080e+03,9.484992027282714844e+00,-8.414105772972106934e-01,-1.262115836143493652e+00,8.600000000000000000e+01
6.122810047913315429e+03,-3.592100208130504598e+03,-1.608695238224384866e+03,-5.696226393922788702e+02,-3.513961296184135335e+03,-3.611375334499539349e+03,2.136643884690415507e+04,-2.150752846119923106e+03,9.484992027282714844e+00,-8.414105772972106934e-01,-1.262115836143493652e+00,8.700000000000000000e+01
6.225028521001740955e+03,-3.688741470188291714e+03,-1.662624417670031107e+03,-5.591521457250710228e+02,-3.538816392400436143e+03,-3.692050709162991097e+03,2.138781268792850460e+04,-2.245026927532743684e+03,9.484992027282714844e+00,-8.414105772972106934e-01,-1.262115836143493652e+00,8.800000000000000000e+01
6.174280455038107903e+03,-3.550883902326111638e+03,-1.643288194413495148e+03,-5.889223442740394603e+02,-3.509057647681308481e+03,-3.600204103991260126e+03,1.958428515171317122e+04,-2.172708015219071967e+03,9.484992027282714844e+00,-8.414105772972106934e-01,-1.262115836143493652e+00,8.900000000000000000e+01
5.963957000676171447e+03,-3.289320544468330809e+03,-1.505501180505680622e+03,-5.619193907197341105e+02,-3.383557417339998665e+03,-3.378475989469471187e+03,1.841081662436307670e+04,-1.966941558164110120e+03,9.484992027282714844e+00,-8.414105772972106934e-01,-1.262115836143493652e+00,9.000000000000000000e+01
5.807552820813767539e+03,-3.184781076655615379e+03,-1.371845565235380036e+03,-4.612008696627663085e+02,-3.254065399512916429e+03,-3.249446916390006663e+03,1.870137722692796888e+04,-1.844965649656573987e+03,9.484992027282714844e+00,-8.414105772972106934e-01,-1.262115836143493652e+00,9.100000000000000000e+01
5.842997866223169694e+03,-3.299263033236843967e+03,-1.362481571992877889e+03,-3.727497249617654234e+02,-3.217784283519870769e+03,-3.309539651778787629e+03,1.826352012991756783e+04,-1.908151375016690508e+03,9.484992027282714844e+00,-8.414105772972106934e-01,-1.262115836143493652e+00,9.200000000000000000e+01
5.942978460316497149e+03,-3.391536883006486278e+03,-1.426655762119969040e+03,-3.665018479507243683e+02,-3.242430199106256623e+03,-3.396176217960666236e+03,1.666514985280101973e+04,-2.002266168037579973e+03,9.484992027282714844e+00,-8.414105772972106934e-01,-1.262115836143493652e+00,9.300000000000000000e+01
5.891719084052549078e+03,-3.253097615376957492e+03,-1.412899867512544006e+03,-4.001407205560344664e+02,-3.211493561831752231e+03,-3.311136260883577052e+03,1.592495836023854099e+04,-1.930856558178450086e+03,9.484992027282714844e+00,-8.414105772972106934e-01,-1.262115836143493652e+00,9.400000000000000000e+01
5.682650422850213545e+03,-2.996742947500680202e+03,-1.278790474741032995e+03,-3.779804479023241583e+02,-3.086143684518689952e+03,-3.093087361361165222e+03,1.643259732176186662e+04,-1.726942653031744612e+03,9.484992027282714844e+00,-8.414105772972106934e-01,-1.262115836143493652e+00,9.500000000000000000e+01
5.526833139969294280e+03,-2.898363477351168967e+03,-1.147938004442003148e+03,-2.827867330962790220e+02,-2.959251169997858597e+03,-2.963513400895280483e+03,1.624265051765009412e+04,-1.607536146418278349e+03,9.484992027282714844e+00,-8.414105772972106934e-01,-1.262115836143493652e+00,9.600000000000000000e+01
5.561279755364339508e+03,-3.014116125774499778e+03,-1.137810277769779532e+03,-1.982368128613097724e+02,-2.927353156747468347e+03,-3.020067963877557759e+03,1.462903950940894356e+04,-1.673184126798552825e+03,9.484992027282714844e+00,-8.414105772972106934e-01,-1.262115836143493652e+00,9.700000000000000000e+01
5.660003395212013857e+03,-3.104714269405239065e+03,-1.198961338127987801e+03,-1.918692855274393878e+02,-2.957718122033018062e+03,-3.101921603459406469e+03,1.339995349578670539e+04,-1.768452801013314456e+03,9.484992027282714844e+00,-8.414105772972106934e-01,-1.262115836143493652e+00,9.800000000000000000e+01
5.608305101413996454e+03,-2.968316195189219798e+03,-1.185831711344118958e+03,-2.214552382856145414e+02,-2.933606413945199165e+03,-3.013447089348867394e+03,1.375785915655551798e+04,-1.697069396771992160e+03,9.484992027282714844e+00,-8.414105772972106934e-01,-1.262115836143493652e+00,9.900000000000000000e+01
5.399438762679590582e+03,-2.718359094299113622e+03,-1.058045480144368412e+03,-1.940512672041895712e+02,-2.815193560718738809e+03,-2.795573642476157147e+03,1.397068138794058541e+04,-1.493837558718130367e+03,9.484992027282714844e+00,-8.414105772972106934e-01,-1.262115836143493652e+00,1.000000000000000000e+02
5.244110263743873475e+03,-2.624301190551976561e+03,-9.346881676058410449e+02,-9.521108876170819713e+01,-2.694340020871280103e+03,-2.669353721859890356e+03,1.230572779716274817e+04,-1.376720022240818707e+03,9.484992027282714844e+00,-8.414105772972106934e-01,-1.262115836143493652e+00,1.010000000000000000e+02
5.278886166224387125e+03,-2.738197511895356001e+03,-9.288156212707826853e+02,-9.741886139825510327e+00,-2.666885703757033298e+03,-2.730289593291616256e+03,1.095681891401056782e+04,-1.445278938412841853e+03,9.484992027282714844e+00,-8.414105772972106934e-01,-1.262115836143493652e+00,1.020000000000000000e+02
5.376701046617973589e+03,-2.823249455168530403e+03,-9.914513822678336510e+02,-5.698399603483267128e+00,-2.698863826634635188e+03,-2.816290792480699565e+03,1.352394553251780962e+04,-1.543491853089155939e+03,9.484992027282714844e+00,-8.414105772972106934e-01,-1.262115836143493652e+00,1.030000000000000000e+02
5.322845955002203482e+03,-2.681800792418864148e+03,-9.793456717871122237e+02,-4.118423147118664929e+01,-2.672836358110955189e+03,-2.731597555150619883e+03,1.898634843492733853e+04,-1.476319612376052646e+03,9.370253562927246094e+00,-8.414105772972106934e-01,-1.300361871719360352e+00,1.040000000000000000e+02
5.113153321982484158e+03,-2.429873047971957931e+03,-8.521214031820163655e+02,-2.158549690403742716e+01,-2.550762286903765016e+03,-2.517361352700057068e+03,2.232288104764502350e+04,-1.279080288528232813e+03,9.370253562927246094e+00,-8.414105772972106934e-01,-1.300361871719360352e+00,1.050000000000000000e+02
4.960430996639803197e+03,-2.338996348316291915e+03,-7.278291617153281550e+02,7.099245256044832786e+01,-2.427200272430273799e+03,-2.395187712549332446e+03,2.147322708045027321e+04,-1.167657168775787795e+03,9.370253562927246094e+00,-8.414105772972106934e-01,-1.300361871719360352e+00,1.060000000000000000e+02
4.999328148042351131e+03,-2.461759158283367469e+03,-7.206590272599096352e+02,1.530811255569842615e+02,-2.398605675918892302e+03,-2.460658581170391244e+03,1.939667889547144296e+04,-1.239683765395468527e+03,9.370253562927246094e+00,-8.414105772972106934e-01,-1.300361871719360352e+00,1.070000000000000000e+02
5.099904712963262682e+03,-2.558199904165253884e+03,-7.836934311922477718e+02,1.544302295657516879e+02,-2.430461431632003496e+03,-2.550694581758196819e+03,1.877732967581279081e+04,-1.340063018160752563e+03,9.370253562927246094e+00,-8.414105772972106934e-01,-1.300361871719360352e+00,1.080000000000000000e+02
5.048540282303206368e+03,-2.426141866127519279e+03,-7.734840095412782830e+02,1.150709895343707103e+02,-2.406219391763439944e+03,-2.469109161190872783e+03,1.894042679472853706e+04,-1.275515320484556469e+03,9.370253562927246094e+00,-8.414105772972106934e-01,-1.300361871719360352e+00,1.090000000000000000e+02
4.843440192787933483e+03,-2.179253083918266384e+03,-6.485345896809267288e+02,1.304114540393220523e+02,-2.288745004153554873e+03,-2.258084129029009546e+03,1.855093540132937051e+04,-1.081228305677534081e+03,9.370253562927246094e+00,-8.414105772972106934e-01,-1.300361871719360352e+00,1.100000000000000000e+02
4.695493622454237084e+03,-2.088515965373077506e+03,-5.276849157312526586e+02,2.188384935221674823e+02,-2.170403203557952111e+03,-2.139506917444979536e+03,1.774026254505138058e+04,-9.720985982643851457e+02,9.370253562927246094e+00,-8.414105772972106934e-01,-1.300361871719360352e+00,1.110000000000000000e+02
4.735678185196074992e+03,-2.207165555640000548e+03,-5.258052627649731221e+02,2.956559786638817968e+02,-2.144132610557440785e+03,-2.207476035260004210e+03,1.697214272354244895e+04,-1.045750220050103053e+03,9.370253562927246094e+00,-8.414105772972106934e-01,-1.300361871719360352e+00,1.120000000000000000e+02
4.834847172135022447e+03,-2.298587817843643279e+03,-5.943123855670337434e+02,2.910372192818658732e+02,-2.175504094734143109e+03,-2.298400745742451818e+03,1.621557766190808252e+04,-1.147669109796743214e+03,9.370253562927246094e+00,-8.414105772972106934e-01,-1.300361871719360352e+00,1.130000000000000000e+02
4.782695180812854232e+03,-2.164716230547612213e+03,-5.889602695886487709e+02,2.478089609355010907e+02,-2.151644109754004603e+03,-2.217888579639225100e+03,1.561953853863325639e+04,-1.085121316661687160e+03,9.370253562927246094e+00,-8.414105772972106934e-01,-1.300361871719360352e+00,1.140000000000000000e+02
4.576918397665917837e+03,-1.919187366753831157e+03,-4.698839422425544399e+02,2.620360989339924345e+02,-2.037178432624341440e+03,-2.009097031658412561e+03,1.535556550318017071e+04,-8.935743902168742352e+02,9.370253562927246094e+00,-8.414105772972106934e-01,-1.300361871719360352e+00,1.150000000000000000e+02
4.425222840932517101e+03,-1.829820416497277620e+03,-3.552276708178414992e+02,3.494641375310038711e+02,-1.922167255993266735e+03,-1.891986138164342265e+03,1.503340684643625355e+04,-7.868382000607443842e+02,9.370253562927246094e+00,-8.414105772972106934e-01,-1.300361871719360352e+00,1.160000000000000000e+02
4.458782744446071774e+03,-1.948923417188943858e+03,-3.561619533720368054e+02,4.240409549433443317e+02,-1.897953397414925803e+03,-1.959077004184381167e+03,1.417594749886489808e+04,-8.607660379557200940e+02,9.370253562927246094e+00,-8.414105772972106934e-01,-1.300361871719360352e+00,1.170000000000000000e+02
4.552185872282298078e+03,-2.040557096128609373e+03,-4.242505736742186855e+02,4.173188709157584526e+02,-1.932446065194859329e+03,-2.048979085915873839e+03,1.304358523321678149e+04,-9.617202530521426525e+02,9.370253562927246094e+00,-8.414105772972106934e-01,-1.300361871719360352e+00,1.180000000000000000e+02
4.497474268091069462e+03,-1.905063302740054951e+03,-4.201214364116185607e+02,3.723639719943075761e+02,-1.914687914410863868e+03,-1.970369379414738887e+03,1.244474149774574107e+04,-9.001735495653447288e+02,9.370253562927246094e+00,-8.414105772972106934e-01,-1.300361871719360352e+00,1.190000000000000000e+02
4.291484009798096849e+03,-1.655413667873533541e+03,-3.054874211500127785e+02,3.836852659730757296e+02,-1.806585608133993446e+03,-1.764847218990690635e+03,1.255393290052409429e+04,-7.116979424576420570e+02,9.370253562927246094e+00,-8.414105772972106934e-01,-1.300361871719360352e+00,1.200000000000000000e+02
4.139747464845765535e+03,-1.563927728655192368e+03,-1.950297716080522150e+02,4.675091450938944035e+02,-1.694653378453444475e+03,-1.647383769693326485e+03,1.232076833684646408e+04,-6.061458692651331148e+02,9.370253562927246094e+00,-8.414105772972106934e-01,-1.300361871719360352e+00,1.210000000000000000e+02
4.171633965625289420e+03,-1.686988727497231139e+03,-1.982335490328487140e+02,5.405640943736780173e+02,-1.670960928414974660e+03,-1.709358077529984257e+03,1.096962722079312334e+04,-6.777215942818338590e+02,9.370253562927246094e+00,-8.414105772972106934e-01,-1.300361871719360352e+00,1.220000000000000000e+02
4.261444239878403096e+03,-1.785977577341278447e+03,-2.680203258945311973e+02,5.354555215689415490e+02,-1.706075400335761969e+03,-1.794344030421180832e+03,9.679575665651014788e+03,-7.762631366346367940e+02,9.370253562927246094e+00,-8.414105772972106934e-01,-1.300361871719360352e+00,1.230000000000000000e+02
4.203017452764821428e+03,-1.656562330784059668e+03,-2.649744860015134691e+02,4.932860739055104204e+02,-1.689416059763836529e+03,-1.715942550223473972e+03,9.833256106617678597e+03,-7.156757801094308888e+02,9.370253562927246094e+00,-8.414105772972106934e-01,-1.300361871719360352e+00,1.240000000000000000e+02
3.995323041793066295e+03,-1.410507848421835206e+03,-1.507053210733693049e+02,5.059394974901406385e+02,-1.582799384911468223e+03,-1.515945115772236932e+03,1.010988451354861536e+04,-5.314149884464004572e+02,9.370253562927246094e+00,-8.414105772972106934e-01,-1.300361871719360352e+00,1.250000000000000000e+02
3.844067965122027090e+03,-1.318797007923186811e+03,-4.264091370477672172e+01,5.881200513591556955e+02,-1.474436102655230115e+03,-1.406940177135921658e+03,8.556724957498787262e+03,-4.319349073472030796e+02,9.370253562927246094e+00,-8.414105772972106934e-01,-1.300361871719360352e+00,1.260000000000000000e+02
3.877596449529285564e+03,-1.436172022481942804e+03,-5.098941598190322111e+01,6.569064498822735914e+02,-1.456279606017182232e+03,-1.477834263191912214e+03,7.116347640713545843e+03,-5.100526470059576241e+02,9.370253562927246094e+00,-8.414105772972106934e-01,-1.300361871719360352e+00,1.270000000000000000e+02
3.970137472004769734e+03,-1.529792026851610899e+03,-1.239848030985467631e+02,6.472330709343914350e+02,-1.494986089896881822e+03,-1.569445857630921182e+03,9.605126528379623778e+03,-6.134392961859302886e+02,9.370253562927246094e+00,-8.414105772972106934e-01,-1.300361871719360352e+00,1.280000000000000000e+02
3.915994743245234531e+03,-1.405669732350103914e+03,-1.191208131092334952e+02,6.020518499335321394e+02,-1.477772301852600322e+03,-1.494068518129289259e+03,1.513836270275994320e+04,-5.549464189516475017e+02,9.484992027282714844e+00,-8.031646609306335449e-01,-1.223870038986206055e+00,1.290000000000000000e+02
3.713426998454317982e+03,-1.175691991125487675e+03,-1.247683484943991061e+00,6.118955620086708223e+02,-1.369384648811023908e+03,-1.295774253231024886e+03,1.850245461119722677e+04,-3.717692993747914443e+02,9.484992027282714844e+00,-8.031646609306335449e-01,-1.223870038986206055e+00,1.300000000000000000e+02
3.566760739837035544e+03,-1.099777269440531200e+03,1.090084888800811314e+02,6.888991807341935782e+02,-1.260725276723724619e+03,-1.189831066278683465e+03,1.758233005328262152e+04,-2.738631332243057841e+02,9.484992027282714844e+00,-8.031646609306335449e-01,-1.223870038986206055e+00,1.310000000000000000e+02
3.603921110481694996e+03,-1.226124986065912708e+03,1.022149214878736529e+02,7.502563145146305033e+02,-1.242361670165333635e+03,-1.264421144850026849e+03,1.550336267698280790e+04,-3.531355579852424853e+02,9.484992027282714844e+00,-8.031646609306335449e-01,-1.223870038986206055e+00,1.320000000000000000e+02
3.699530154400082210e+03,-1.324601230038381800e+03,2.936828426633837807e+01,7.329596726526251587e+02,-1.280187849072241079e+03,-1.358832390043781743e+03,1.495437008122321276e+04,-4.568342922401070609e+02,9.484992027282714844e+00,-8.031646609306335449e-01,-1.223870038986206055e+00,1.330000000000000000e+02
3.648004790745957507e+03,-1.202599085710848613e+03,2.955552772331066080e+01,6.808021671912119928e+02,-1.264269078126480053e+03,-1.286361398091865794e+03,1.507749812942401331e+04,-3.993578069376462736e+02,9.484992027282714844e+00,-8.031646609306335449e-01,-1.223870038986206055e+00,1.340000000000000000e+02
3.447529249163583700e+03,-9.701148766280862219e+02,1.390838447895621357e+02,6.845408713790293405e+02,-1.160615641471508752e+03,-1.091966107360102797e+03,1.460319841679571255e+04,-2.184044259754036830e+02,9.484992027282714844e+00,-8.031646609306335449e-01,-1.223870038986206055e+00,1.350000000000000000e+02
3.302596920083886289e+03,-8.898246762814419526e+02,2.433203171288605517e+02,7.579543469065538375e+02,-1.056971805351846342e+03,-9.892180108641086917e+02,1.386755065602699324e+04,-1.226801398047928160e+02,9.484992027282714844e+00,-8.031646609306335449e-01,-1.223870038986206055e+00,1.360000000000000000e+02
3.341137512645293100e+03,-1.015192606856070142e+03,2.348853744192147133e+02,8.195427954224778659e+02,-1.041684995646733114e+03,-1.065014511113854496e+03,1.317363484387072458e+04,-2.039849935334459587e+02,9.484992027282714844e+00,-8.031646609306335449e-01,-1.223870038986206055e+00,1.370000000000000000e+02
3.437593590025144294e+03,-1.115684339998006180e+03,1.611130543529243369e+02,8.047203778149487334e+02,-1.082496874241870955e+03,-1.159831280680780765e+03,1.228492539159814260e+04,-3.105422694305480036e+02,9.484992027282714844e+00,-8.031646609306335449e-01,-1.223870038986206055e+00,1.380000000000000000e+02
3.386891327113913576e+03,-9.956598697719036863e+02,1.588875315243822115e+02,7.544531436271463463e+02,-1.070852265047598848e+03,-1.088175165316060429e+03,1.161636845775460824e+04,-2.562193383349085707e+02,9.484992027282714844e+00,-8.031646609306335449e-01,-1.223870038986206055e+00,1.390000000000000000e+02
3.188033690058971843e+03,-7.659570524259261219e+02,2.656603238845082160e+02,7.584654352247725910e+02,-9.710092605206800727e+02,-8.948997087545826616e+02,1.156562349315531173e+04,-7.734079717162057932e+01,9.484992027282714844e+00,-8.031646609306335449e-01,-1.223870038986206055e+00,1.400000000000000000e+02
3.044915745805168626e+03,-6.903439310427283999e+02,3.669812537092884668e+02,8.311585557734088070e+02,-8.694387089300671505e+02,-7.934142298386764196e+02,1.129070598363200043e+04,1.763160799448360194e+01,9.484992027282714844e+00,-8.031646609306335449e-01,-1.223870038986206055e+00,1.410000000000000000e+02
3.083802220151401343e+03,-8.204227505769904383e+02,3.550468131261795861e+02,8.916382084071774443e+02,-8.554498398330265445e+02,-8.703715210683135410e+02,1.012778333125816789e+04,-6.330700037010683445e+01,9.484992027282714844e+00,-8.031646609306335449e-01,-1.223870038986206055e+00,1.420000000000000000e+02
3.179194925100122418e+03,-9.264024507781696229e+02,2.790361510268094207e+02,8.758277125041568070e+02,-8.971793527927043215e+02,-9.658004853124421061e+02,9.026351632915950177e+03,-1.689103107815526528e+02,9.484992027282714844e+00,-8.031646609306335449e-01,-1.223870038986206055e+00,1.430000000000000000e+02
3.128270426486375072e+03,-8.163026358837719272e+02,2.768891719674020351e+02,8.255741544161410275e+02,-8.855493162794182354e+02,-8.950488020542079539e+02,8.848270499795635260e+03,-1.153072940596193803e+02,9.484992027282714844e+00,-8.031646609306335449e-01,-1.223870038986206055e+00,1.440000000000000000e+02
2.931393277203223988e+03,-5.988279479546026778e+02,3.832317609058918606e+02,8.311071676709616440e+02,-7.862180369136467561e+02,-7.042601069834036025e+02,8.799118581360889948e+03,5.930446133680288767e+01,9.484992027282714844e+00,-8.031646609306335449e-01,-1.223870038986206055e+00,1.450000000000000000e+02
2.791498345610920296e+03,-5.297043986281851176e+02,4.814537506272536120e+02,9.061075042620886961e+02,-6.882860883186463070e+02,-6.059766377774699322e+02,8.045344288200958545e+03,1.484185292263218798e+02,9.484992027282714844e+00,-8.031646609306335449e-01,-1.223870038986206055e+00,1.460000000000000000e+02
2.833926004847564400e+03,-6.572444343491388281e+02,4.658953621564151035e+02,9.683150599087457522e+02,-6.811398427034846463e+02,-6.856596007524321976e+02,7.105152320414599671e+03,6.306596846170941717e+01,9.484992027282714844e+00,-8.031646609306335449e-01,-1.223870038986206055e+00,1.470000000000000000e+02
2.933764292310645033e+03,-7.562148340562589510e+02,3.876153692055595457e+02,9.529548941218818072e+02,-7.302598893342396877e+02,-7.852271598230117888e+02,6.463903399438753695e+03,-4.619619493714071723e+01,9.484992027282714844e+00,-8.031646609306335449e-01,-1.223870038986206055e+00,1.480000000000000000e+02
2.888580808725884708e+03,-6.398800368737029203e+02,3.828415369732183535e+02,9.019750893875952897e+02,-7.245594654094024918e+02,-7.218121370377648418e+02,5.824546490279899444e+03,2.462505761520333181e+00,9.484992027282714844e+00,-8.031646609306335449e-01,-1.223870038986206055e+00,1.490000000000000000e+02
2.697624919569543636e+03,-4.196125101222605736e+02,4.850949689330655019e+02,9.053245974016608670e+02,-6.296128113745712653e+02,-5.383787523174692069e+02,5.372780052234818868e+03,1.724033569524708582e+02,9.484992027282714844e+00,-8.031646609306335449e-01,-1.223870038986206055e+00,1.500000000000000000e+02
2.562170714482352196e+03,-3.529568276740815236e+02,5.795703953401944091e+02,9.759405290398499346e+02,-5.348050346061936580e+02,-4.429234010042418959e+02,5.410366363302387981e+03,2.600667479605090193e+02,9.484992027282714844e+00,-8.031646609306335449e-01,-1.223870038986206055e+00,1.510000000000000000e+02
2.606613114962063264e+03,-4.876613141318207454e+02,5.614384909580694512e+02,1.032359766238496377e+03,-5.294195935462525995e+02,-5.215927261636406911e+02,4.786159280828685951e+03,1.756840101181132923e+02,9.484992027282714844e+00,-8.031646609306335449e-01,-1.223870038986206055e+00,1.520000000000000000e+02
2.706652866462498423e+03,-5.941679783617787507e+02,4.805372068429824139e+02,1.012726563702842213e+03,-5.793083241188837746e+02,-6.205877702468278585e+02,2.772968509026533866e+03,6.638493026545165776e+01,9.484992027282714844e+00,-8.031646609306335449e-01,-1.223870038986206055e+00,1.530000000000000000e+02
2.662268210376067145e+03,-4.821397630058054347e+02,4.735149679028945684e+02,9.608285971940240415e+02,-5.743566309196885413e+02,-5.591229861158631138e+02,1.974330126763414228e+03,1.124875298637416563e+02,9.484992027282714844e+00,-8.031646609306335449e-01,-1.223870038986206055e+00,1.540000000000000000e+02
2.474738147743802983e+03,-2.636483994692853230e+02,5.757907922566228081e+02,9.648491365236623096e+02,-4.803590198172450982e+02,-3.795894842103307383e+02,5.339812638062790938e+03,2.784779701692741583e+02,9.484992027282714844e+00,-8.031646609306335449e-01,-1.223870038986206055e+00,1.550000000000000000e+02
2.344138046832189502e+03,-1.983544420792504752e+02,6.720427901326338542e+02,1.034847955847707453e+03,-3.855817275584076924e+02,-2.889995674908191177e+02,1.077020627670394970e+04,3.624686231104451508e+02,9.484992027282714844e+00,-6.501809358596801758e-01,-1.262115836143493652e+00,1.560000000000000000e+02
2.392170358712450252e+03,-3.344219824674742085e+02,6.548865873664635728e+02,1.088742967726815550e+03,-3.787270945557634150e+02,-3.720056797355741764e+02,1.323845859092141109e+04,2.756762602807057192e+02,9.484992027282714844e+00,-6.501809358596801758e-01,-1.262115836143493652e+00,1.570000000000000000e+02
2.494908711289777784e+03,-4.423131170166166157e+02,5.728941729413763824e+02,1.065208132492479308e+03,-4.274541181456479535e+02,-4.737834175188422705e+02,1.189010842999109809e+04,1.649384976210330933e+02,9.484992027282714844e+00,-6.501809358596801758e-01,-1.262115836143493652e+00,1.580000000000000000e+02
2.455142479609796283e+03,-3.326785947541957285e+02,5.627605400256525172e+02,1.007559932745065453e+03,-4.241105926630971226e+02,-4.152768266830653374e+02,1.037864663118177305e+04,2.091995983140823228e+02,9.484992027282714844e+00,-6.501809358596801758e-01,-1.262115836143493652e+00,1.590000000000000000e+02
2.274277835521428642e+03,-1.180832851856466732e+02,6.602588430435298505e+02,1.004241534251599660e+03,-3.342405680421061334e+02,-2.409092867086610568e+02,1.065590189423938864e+04,3.723288476408779388e+02,9.484992027282714844e+00,-6.501809358596801758e-01,-1.262115836143493652e+00,1.600000000000000000e+02
2.149378217479077648e+03,-5.698335402106204128e+01,7.520248941429872502e+02,1.067997574542815528e+03,-2.434911842922433607e+02,-1.557364047687874518e+02,1.102284082137599944e+04,4.536087384852407922e+02,9.484992027282714844e+00,-6.501809358596801758e-01,-1.262115836143493652e+00,1.610000000000000000e+02
2.200762577822606545e+03,-1.960938824697309428e+02,7.336513131909987351e+02,1.118890137640462854e+03,-2.388994999581154843e+02,-2.411993744741639603e+02,1.026718397911238935e+04,3.655209528330651665e+02,9.484992027282714844e+00,-6.501809358596801758e-01,-1.262115836143493652e+00,1.620000000000000000e+02
2.305892744547223629e+03,-3.066270803356642318e+02,6.537359639422202235e+02,1.094382608850374709e+03,-2.884186413726083629e+02,-3.433803800805335413e+02,9.425795116241914002e+03,2.545765592349498547e+02,9.484992027282714844e+00,-6.501809358596801758e-01,-1.262115836143493652e+00,1.630000000000000000e+02
2.268157552130414842e+03,-2.019806248497397974e+02,6.450059189841249463e+02,1.035792732437201266e+03,-2.852490790895312784e+02,-2.857183221620025506e+02,9.243039045084349709e+03,2.984615740142226059e+02,9.484992027282714844e+00,-6.501809358596801758e-01,-1.262115836143493652e+00,1.640000000000000000e+02
2.088008074533338004e+03,4.407680398681350198e+00,7.394705675749701186e+02,1.031803911273578706e+03,-1.961370987358259299e+02,-1.116020413992282556e+02,9.136586525915281527e+03,4.602008640240856039e+02,9.484992027282714844e+00,-6.501809358596801758e-01,-1.262115836143493652e+00,1.650000000000000000e+02
1.962685547109140316e+03,5.763330148452951107e+01,8.238795402630503304e+02,1.095833304514897463e+03,-1.081446404075031751e+02,-2.455913056108875026e+01,8.769219927527252366e+03,5.392326679894085828e+02,9.484992027282714844e+00,-6.501809358596801758e-01,-1.262115836143493652e+00,1.660000000000000000e+02
2.013835776468979020e+03,-8.511969985257974258e+01,7.970933491898549619e+02,1.146947733845006951e+03,-1.079767639288074861e+02,-1.085537206776034509e+02,8.412537743314431282e+03,4.491875733223987481e+02,9.484992027282714844e+00,-6.501809358596801758e-01,-1.262115836143493652e+00,1.670000000000000000e+02
2.119185866560948853e+03,-1.966786368398097693e+02,7.110792090861814359e+02,1.122179344626464626e+03,-1.612163512704000823e+02,-2.120352625589475792e+02,8.014774937331310866e+03,3.376534759843407301e+02,9.484992027282714844e+00,-6.501809358596801758e-01,-1.262115836143493652e+00,1.680000000000000000e+02
2.081940932341307416e+03,-9.527899077130587102e+01,6.997211055115012641e+02,1.064565306100683301e+03,-1.599522443160112743e+02,-1.564173634486992341e+02,7.452230234967648357e+03,3.816650382053962858e+02,9.484992027282714844e+00,-6.501809358596801758e-01,-1.262115836143493652e+00,1.690000000000000000e+02
1.903606051348495384e+03,1.056176478390198099e+02,7.937200501961087866e+02,1.063490510383917353e+03,-7.274557589520100009e+01,1.642490007895321469e+01,7.105890114528141567e+03,5.422773178577267572e+02,9.484992027282714844e+00,-6.501809358596801758e-01,-1.262115836143493652e+00,1.700000000000000000e+02
1.781904678388580578e+03,1.566178183043898571e+02,8.775664198378171932e+02,1.129861724768031308e+03,1.169694098568652407e+01,1.008312197819368521e+02,7.104850823251488691e+03,6.181862333834528727e+02,9.484992027282714844e+00,-6.501809358596801758e-01,-1.262115836143493652e+00,1.710000000000000000e+02
1.836297071009043066e+03,1.754708035662588372e+01,8.485507935498371808e+02,1.180601299741637376e+03,7.752870380738386302e+00,1.310990649333098190e+01,6.856504616948206603e+03,5.243244197253397942e+02,9.484992027282714844e+00,-6.501809358596801758e-01,-1.262115836143493652e+00,1.720000000000000000e+02
1.942346528230478725e+03,-8.858416090556647760e+01,7.586621876051312938e+02,1.154347827755183971e+03,-4.859493732303508295e+01,-9.118479260588492252e+01,6.127140935438821543e+03,4.094364623190053862e+02,9.484992027282714844e+00,-6.501809358596801758e-01,-1.262115836143493652e+00,1.730000000000000000e+02
1.904583009844125627e+03,1.541672399353001310e+01,7.437428242953192239e+02,1.096568275558758614e+03,-5.031090677860493088e+01,-3.440532783060871225e+01,5.577447224866971737e+03,4.501118027661582346e+02,9.484992027282714844e+00,-6.501809358596801758e-01,-1.262115836143493652e+00,1.740000000000000000e+02
1.727208324014310165e+03,2.164085679456147773e+02,8.371717360015254599e+02,1.095820153339117496e+03,3.218279606163150675e+01,1.349991200849490269e+02,5.551607294008272220e+03,6.068942037536057796e+02,9.484992027282714844e+00,-6.501809358596801758e-01,-1.262115836143493652e+00,1.750000000000000000e+02
1.607849674254849560e+03,2.664093994310287599e+02,9.242326433176986029e+02,1.160868366719045298e+03,1.109266633896822896e+02,2.107325992036139723e+02,5.448968809652185882e+03,6.796597496879594473e+02,9.484992027282714844e+00,-6.501809358596801758e-01,-1.262115836143493652e+00,1.760000000000000000e+02
1.664128542846335222e+03,1.238100183594410737e+02,9.004133690442204170e+02,1.209088173944332084e+03,1.034681943146433696e+02,1.163455338993385340e+02,4.908317686195812712e+03,5.851038190471876987e+02,9.484992027282714844e+00,-6.501809358596801758e-01,-1.262115836143493652e+00,1.770000000000000000e+02
1.771968064835661608e+03,1.111472929307865343e+01,8.152469093256759152e+02,1.180535438009401332e+03,4.702108601949339572e+01,9.905100939922249381e+00,4.396380644640394166e+03,4.717558120247144871e+02,9.484992027282714844e+00,-6.501809358596801758e-01,-1.262115836143493652e+00,1.780000000000000000e+02
1.737900450826437918e+03,1.089857032035306474e+02,8.025576508684071086e+02,1.119420825361858988e+03,4.615207742579104888e+01,6.358910926301723521e+01,4.126987285103217800e+03,5.139048329715469663e+02,9.484992027282714844e+00,-6.501809358596801758e-01,-1.262115836143493652e+00,1.790000000000000000e+02
1.565950454959387571e+03,3.068068831373107059e+02,8.943989117234659716e+02,1.112555385501215824e+03,1.285027893916903849e+02,2.271393993315455191e+02,3.749769518645323842e+03,6.705343377908711773e+02,9.484992027282714844e+00,-6.501809358596801758e-01,-1.262115836143493652e+00,1.800000000000000000e+02
1.451323065913128630e+03,3.548207655096562121e+02,9.773467912815840464e+02,1.170808998022946071e+03,2.076134857758811449e+02,2.990021641302905664e+02,3.403599736771815515e+03,7.420657825140992827e+02,9.484992027282714844e+00,-6.501809358596801758e-01,-1.262115836143493652e+00,1.810000000000000000e+02
1.510435059397607802e+03,2.103526136469708945e+02,9.508655472919954263e+02,1.215287761755635984e+03,2.017445077321458484e+02,2.034185342139307977e+02,3.433446903021775142e+03,6.455676524990803955e+02,9.484992027282714844e+00,-6.501809358596801758e-01,-1.262115836143493652e+00,1.820000000000000000e+02
1.620206772446066680e+03,9.793665683410154088e+01,8.661687627347787384e+02,1.186136843917369333e+03,1.450210825463159381e+02,9.380406155253149336e+01,3.127150307059660918e+03,5.285051207477695243e+02,9.484992027282714844e+00,-6.501809358596801758e-01,-1.262115836143493652e+00,1.830000000000000000e+02
1.588332936544547920e+03,1.972902277385828711e+02,8.539421771925854046e+02,1.125228380374618609e+03,1.406061702006445557e+02,1.430642643543383201e+02,1.896809823594159752e+03,5.656036853855061963e+02,9.484992027282714844e+00,-6.501809358596801758e-01,-1.262115836143493652e+00,1.840000000000000000e+02
1.419231523330419805e+03,3.928994965304136713e+02,9.436995757369963940e+02,1.119173241367795526e+03,2.202338429029082363e+02,3.072867051043372157e+02,1.425099431641743649e+03,7.194579371257277671e+02,9.484992027282714844e+00,-6.501809358596801758e-01,-1.262115836143493652e+00,1.850000000000000000e+02
1.308122567879780945e+03,4.350534964472753927e+02,1.024004686172834681e+03,1.179547051989311512e+03,3.003006907656053954e+02,3.853527348518396138e+02,3.755448163442548321e+03,7.930850175482046325e+02,9.484992027282714844e+00,-6.501809358596801758e-01,-1.262115836143493652e+00,1.860000000000000000e+02
1.370706662295187016e+03,2.875458811307994438e+02,9.962400109600016549e+02,1.225518662746630071e+03,2.955659721875940704e+02,2.947930699664138956e+02,7.554682105191330265e+03,7.013202848776186329e+02,9.446745872497558594e+00,-7.649186849594116211e-01,-1.338607788085937500e+00,1.870000000000000000e+02
1.482665070865569760e+03,1.767183670433405496e+02,9.100653695936443910e+02,1.194956840557132637e+03,2.370517426250012250e+02,1.854062469101686474e+02,9.397807868490828696e+03,5.875133180380362319e+02,9.446745872497558594e+00,-7.649186849594116211e-01,-1.338607788085937500e+00,1.880000000000000000e+02
1.451783676376652693e+03,2.759411911578254148e+02,8.954396535683254115e+02,1.130529461873873515e+03,2.308076997138846309e+02,2.319280218115609387e+02,8.625830477384124606e+03,6.249197452182702364e+02,9.446745872497558594e+00,-7.649186849594116211e-01,-1.338607788085937500e+00,1.890000000000000000e+02
1.284176439426332763e+03,4.660969632768856172e+02,9.839806568771377897e+02,1.120044468438036347e+03,3.111486499689717675e+02,3.913464665803335265e+02,7.690128447712018897e+03,7.766382714848423348e+02,9.446745872497558594e+00,-7.649186849594116211e-01,-1.338607788085937500e+00,1.900000000000000000e+02
1.175817115925595317e+03,5.017819895203438136e+02,1.063993410412265348e+03,1.174357051323570886e+03,3.914999914702734714e+02,4.624891956635133283e+02,7.871742237877560910e+03,8.459193546464630344e+02,9.446745872497558594e+00,-7.649186849594116211e-01,-1.338607788085937500e+00,1.910000000000000000e+02
1.241171754245068769e+03,3.506690584038115048e+02,1.032789540678793401e+03,1.214065940623439019e+03,3.836573681753861820e+02,3.662922464642992963e+02,7.945715059201646909e+03,7.483984390871064534e+02,9.446745872497558594e+00,-7.649186849594116211e-01,-1.338607788085937500e+00,1.920000000000000000e+02
1.355009020094409607e+03,2.384052186949497809e+02,9.384524576736093877e+02,1.182150291280101555e+03,3.199630712521193345e+02,2.560289939274184690e+02,7.129089749569723608e+03,6.291674273206244834e+02,9.446745872497558594e+00,-7.649186849594116211e-01,-1.338607788085937500e+00,1.930000000000000000e+02
1.325668699496903173e+03,3.391553427420226399e+02,9.145805425220860343e+02,1.123376800168754016e+03,3.075770017341696985e+02,3.039259692888540485e+02,6.389072495448023801e+03,6.617812618556740745e+02,9.446745872497558594e+00,-7.649186849594116211e-01,-1.338607788085937500e+00,1.940000000000000000e+02
1.159413450270936664e+03,5.367104191426187754e+02,9.964354841351910181e+02,1.120991751215606200e+03,3.794505124204970343e+02,4.619971928665136147e+02,6.422384911097195072e+03,8.080287093784686476e+02,9.446745872497558594e+00,-7.649186849594116211e-01,-1.338607788085937500e+00,1.950000000000000000e+02
1.051440058580883488e+03,5.828536192734886754e+02,1.072461181338838742e+03,1.180913669449233566e+03,4.496456347544162782e+02,5.290929056686586591e+02,6.528042309413845032e+03,8.715245836576868896e+02,9.446745872497558594e+00,-7.649186849594116211e-01,-1.338607788085937500e+00,1.960000000000000000e+02
1.116696879929982060e+03,4.368656922477548505e+02,1.038933885948928037e+03,1.223410460295409848e+03,4.335505372634447667e+02,4.299817971454199323e+02,6.013338102233757127e+03,7.703879697980437413e+02,9.446745872497558594e+00,-7.649186849594116211e-01,-1.338607788085937500e+00,1.970000000000000000e+02
1.231860696065691627e+03,3.209848300827607090e+02,9.434693760062582442e+02,1.192187276812906930e+03,3.653040183543585044e+02,3.191082141379511086e+02,5.285905103875857094e+03,6.505695262752442432e+02,9.446745872497558594e+00,-7.649186849594116211e-01,-1.338607788085937500e+00,1.980000000000000000e+02
1.205676083720391944e+03,4.147646334649748496e+02,9.186751788909623428e+02,1.131048047338608285e+03,3.506395524072840999e+02,3.664943585439596063e+02,4.995828835140042429e+03,6.835371618007757206e+02,9.446745872497558594e+00,-7.649186849594116211e-01,-1.338607788085937500e+00,1.990000000000000000e+02
1.042470988734400635e+03,6.076400390389126187e+02,9.985653992382185606e+02,1.123989244470837548e+03,4.209440237121020800e+02,5.230004270634694876e+02,4.975467800374929539e+03,8.293173585208587610e+02,9.446745872497558594e+00,-7.649186849594116211e-01,-1.338607788085937500e+00,2.000000000000000000e+02
9.359300750981483361e+02,6.509480073566173814e+02,1.071920358668664448e+03,1.180496353241273937e+03,4.898901517342333136e+02,5.887909079276764714e+02,4.682318983479073722e+03,8.922299237260695008e+02,9.446745872497558594e+00,-7.649186849594116211e-01,-1.338607788085937500e+00,2.010000000000000000e+02
1.001465936234767469e+03,5.016812184028649426e+02,1.036813736439513377e+03,1.222641823285599912e+03,4.728763407662336249e+02,4.895018723136677181e+02,4.202401773137094096e+03,7.916198067533196081e+02,9.446745872497558594e+00,-7.649186849594116211e-01,-1.338607788085937500e+00,2.020000000000000000e+02
1.116747030138585615e+03,3.829116323999685392e+02,9.419956337113385416e+02,1.192138923664885169e+03,4.042223538921766703e+02,3.782929264626750410e+02,3.946429491193023750e+03,6.730507591023724672e+02,9.446745872497558594e+00,-7.649186849594116211e-01,-1.338607788085937500e+00,2.030000000000000000e+02
1.091158863582819322e+03,4.752853835309074384e+02,9.193844021784293545e+02,1.130522510939182212e+03,3.896016028907060900e+02,4.237785965107209449e+02,3.646048174049614317e+03,7.068256012527785970e+02,9.446745872497558594e+00,-7.649186849594116211e-01,-1.338607788085937500e+00,2.040000000000000000e+02
9.299513968618275612e+02,6.659885489905277609e+02,1.001666837576644411e+03,1.121648239707787525e+03,4.599252064459087705e+02,5.773724081093214409e+02,2.922566020510514136e+03,8.528259657469066042e+02,9.446745872497558594e+00,-7.649186849594116211e-01,-1.338607788085937500e+00,2.050000000000000000e+02
8.275020710955095637e+02,7.043523398924573939e+02,1.077738535742414570e+03,1.175452210213911258e+03,5.294241469635994690e+02,6.402828206974786553e+02,2.666610457594822947e+03,9.161081209335166022e+02,9.446745872497558594e+00,-7.649186849594116211e-01,-1.338607788085937500e+00,2.060000000000000000e+02
8.985066308424056842e+02,5.495007973294834756e+02,1.047121440046956650e+03,1.213741922558880560e+03,5.152566732568902808e+02,5.373284768816743053e+02,4.098484348797208440e+03,8.160689168502435678e+02,9.446745872497558594e+00,-7.649186849594116211e-01,-1.338607788085937500e+00,2.070000000000000000e+02
1.019317364310308221e+03,4.264975200690576003e+02,9.584985914913063425e+02,1.178142885641334942e+03,4.519690921367114242e+02,4.206713729419388983e+02,6.473869000308185605e+03,6.973807764991988734e+02,9.446745872497558594e+00,-7.649186849594116211e-01,-1.223870038986206055e+00,2.080000000000000000e+02
9.987906670803249654e+02,5.131169219852449714e+02,9.407935542496416019e+02,1.111286454505387610e+03,4.428218262679147301e+02,4.611061815711059353e+02,7.713385002839141634e+03,7.300320947689838249e+02,9.446745872497558594e+00,-7.649186849594116211e-01,-1.223870038986206055e+00,2.090000000000000000e+02
8.418384346205166366e+02,6.939177772432101392e+02,1.023674571073552670e+03,1.099010446941111695e+03,5.162717995188395435e+02,6.136258313802268276e+02,7.354666205936263395e+03,8.746837479839680327e+02,9.446745872497558594e+00,-7.649186849594116211e-01,-1.223870038986206055e+00,2.100000000000000000e+02
7.420021386870866991e+02,7.221976521763463097e+02,1.096141223688293394e+03,1.152592410050153376e+03,5.859615593182534212e+02,6.792489194373324608e+02,6.783151563086729766e+03,9.367416727274787718e+02,9.446745872497558594e+00,-7.649186849594116211e-01,-1.223870038986206055e+00,2.110000000000000000e+02
8.139629281126162823e+02,5.625232204689975788e+02,1.060178160617666890e+03,1.193004457310368252e+03,5.696771725308685745e+02,5.788685779797879150e+02,6.656812285485547363e+03,8.348942995201068697e+02,9.446745872497558594e+00,-7.649186849594116211e-01,-1.223870038986206055e+00,2.120000000000000000e+02
9.355925621751730432e+02,4.390209370355739793e+02,9.668657933392400992e+02,1.159599381360291773e+03,5.030408573944891941e+02,4.620027160121262568e+02,6.336079995169797257e+03,7.134133886755223557e+02,9.446745872497558594e+00,-7.649186849594116211e-01,-1.223870038986206055e+00,2.130000000000000000e+02
9.171268488431751393e+02,5.260904677203275241e+02,9.463691380324198690e+02,1.093880314968157563e+03,4.901011601121654166e+02,4.997609752835992367e+02,5.707289627310465221e+03,7.424666452285910054e+02,9.446745872497558594e+00,-7.649186849594116211e-01,-1.223870038986206055e+00,2.140000000000000000e+02
7.633673874438609346e+02,7.101070257345556911e+02,1.027861704775591988e+03,1.082144602175725595e+03,5.589731900773113011e+02,6.480752120209513123e+02,5.438017122340666901e+03,8.824013419327288830e+02,9.446745872497558594e+00,-7.649186849594116211e-01,-1.223870038986206055e+00,2.150000000000000000e+02
6.667453898503222263e+02,7.474812375583585435e+02,1.098319827689452268e+03,1.135663121807388961e+03,6.230407454957046411e+02,7.093280189509966931e+02,5.515656733153176901e+03,9.388418364228514292e+02,9.446745872497558594e+00,-7.649186849594116211e-01,-1.223870038986206055e+00,2.160000000000000000e+02
7.405720683905497026e+02,5.989894334022669682e+02,1.058506278278385253e+03,1.174890202750875687e+03,6.015310589449638883e+02,6.070655811418030225e+02,5.252491740560689323e+03,8.328961064524337417e+02,9.446745872497558594e+00,-7.649186849594116211e-01,-1.223870038986206055e+00,2.170000000000000000e+02
8.620648659771445637e+02,4.807776459166873337e+02,9.607241857118051485e+02,1.140118023775721213e+03,5.315958636311320333e+02,4.919371682057233102e+02,4.607347684955852856e+03,7.110487472599495504e+02,9.446745872497558594e+00,-7.649186849594116211e-01,-1.223870038986206055e+00,2.180000000000000000e+02
8.427973698450191478e+02,5.640849776146087606e+02,9.369145822051664254e+02,1.074320107076271597e+03,5.170728481660901252e+02,5.322387556616097299e+02,4.142025794893306738e+03,7.420031471246504680e+02,9.446745872497558594e+00,-7.649186849594116211e-01,-1.223870038986206055e+00,2.190000000000000000e+02
6.896282690776861273e+02,7.391104151276726952e+02,1.016564815681030723e+03,1.063105642371433987e+03,5.857375340149931162e+02,6.805721179095207845e+02,4.006548453580169735e+03,8.829942309071375348e+02,9.446745872497558594e+00,-7.649186849594116211e-01,-1.223870038986206055e+00,2.200000000000000000e+02
5.944421948406434240e+02,7.686641153803564066e+02,1.086570432669278034e+03,1.116210471743580456e+03,6.512846569113391979e+02,7.394945471880002970e+02,3.934526657368817723e+03,9.392321503340654090e+02,9.446745872497558594e+00,-7.649186849594116211e-01,-1.223870038986206055e+00,2.210000000000000000e+02
6.680252475435559063e+02,6.179115148782655069e+02,1.048085938394727464e+03,1.155084806694648705e+03,6.315759598794347767e+02,6.346899093124600313e+02,3.869341321282799072e+03,8.333627783704014291e+02,9.446745872497558594e+00,-7.649186849594116211e-01,-1.223870038986206055e+00,2.220000000000000000e+02
7.876882416134039886e+02,5.024475980612571675e+02,9.526115756160636465e+02,1.122117630751627530e+03,5.612037452534048043e+02,5.176892341290065360e+02,3.901935811020161964e+03,7.118364271919006114e+02,9.446745872497558594e+00,-7.649186849594116211e-01,-1.223870038986206055e+00,2.230000000000000000e+02
7.681505642436331982e+02,5.891822692018863563e+02,9.297110322535404521e+02,1.059323156966257102e+03,5.439728093073563286e+02,5.561758452760163891e+02,3.896871549600924482e+03,7.419908640325454598e+02,9.446745872497558594e+00,-7.649186849594116211e-01,-1.223870038986206055e+00,2.240000000000000000e+02
6.175280872669395649e+02,7.657795685891171615e+02,1.007768267527038233e+03,1.049026686598519518e+03,6.096119017326122957e+02,7.015418019811152135e+02,3.675332002034393554e+03,8.808374083171986513e+02,9.446745872497558594e+00,-7.649186849594116211e-01,-1.223870038986206055e+00,2.250000000000000000e+02
5.255012054461258231e+02,7.960600037915728535e+02,1.075652869417132933e+03,1.099878108198201517e+03,6.721362523084276290e+02,7.556761137995620174e+02,3.394542217694382543e+03,9.347044752415508810e+02,9.446745872497558594e+00,-7.649186849594116211e-01,-1.223870038986206055e+00,2.260000000000000000e+02
6.010731328425044921e+02,6.450232180709886052e+02,1.037284265241720504e+03,1.135309305631324150e+03,6.490823877159225503e+02,6.458841069566685746e+02,3.392023908005098747e+03,8.273499066132887947e+02,9.446745872497558594e+00,-7.649186849594116211e-01,-1.223870038986206055e+00,2.270000000000000000e+02
7.218426297706378136e+02,5.263978814368983876e+02,9.441707560658171587e+02,1.099628001567964020e+03,5.764259599687015907e+02,5.263597816235326263e+02,3.628824633039877881e+03,7.053484527253519900e+02,9.446745872497558594e+00,-7.649186849594116211e-01,-1.223870038986206055e+00,2.280000000000000000e+02
7.025284811909778000e+02,6.089749048354742627e+02,9.228937615768343221e+02,1.035172019933983847e+03,5.584537772510636842e+02,5.646035452747435102e+02,3.592918938366326984e+03,7.350165564349920260e+02,9.446745872497558594e+00,-7.649186849594116211e-01,-1.223870038986206055e+00,2.290000000000000000e+02
5.507365229710594576e+02,7.842685102890434337e+02,9.997297323685845640e+02,1.024212644292332698e+03,6.231442850287462534e+02,7.101512451842049813e+02,3.093374885275099587e+03,8.730285675343943694e+02,9.446745872497558594e+00,-7.649186849594116211e-01,-1.223870038986206055e+00,2.300000000000000000e+02
4.573617968048502007e+02,8.141917016520787911e+02,1.065434366651586743e+03,1.075636701485545473e+03,6.848234288809233021e+02,7.662394697597917457e+02,2.849202253394806576e+03,9.278042989874511477e+02,9.446745872497558594e+00,-7.649186849594116211e-01,-1.223870038986206055e+00,2.310000000000000000e+02
5.337425755921776727e+02,6.590495040815912944e+02,1.027150861413205575e+03,1.112520720994777548e+03,6.637889082650374348e+02,6.621296027569746911e+02,3.610019065830305408e+03,8.246949997205338150e+02,9.446745872497558594e+00,-7.649186849594116211e-01,-1.223870038986206055e+00,2.320000000000000000e+02
6.582638398412677816e+02,5.345321322100835459e+02,9.360390188813114491e+02,1.077827088068573630e+03,5.951178219038472434e+02,5.480067509856917241e+02,4.890050330101747022e+03,7.074557392326785248e+02,9.446745872497558594e+00,-7.266727685928344727e-01,-1.223870038986206055e+00,2.330000000000000000e+02
6.447944434556047781e+02,6.142366726075260885e+02,9.156207296610755293e+02,1.012886279138878763e+03,5.783757663857595617e+02,5.856450785696858929e+02,5.480154684229155464e+03,7.383339626220492846e+02,9.446745872497558594e+00,-7.266727685928344727e-01,-1.223870038986206055e+00,2.340000000000000000e+02
4.998658515949427965e+02,7.874363918668364022e+02,9.914345738279719171e+02,1.000810122945359581e+03,6.402375390039865124e+02,7.265948914905800393e+02,5.138631003379718095e+03,8.744285682170614109e+02,9.446745872497558594e+00,-7.266727685928344727e-01,-1.223870038986206055e+00,2.350000000000000000e+02
4.127802336884269607e+02,8.124150301134222900e+02,1.056013528636775391e+03,1.052164072426180610e+03,6.979176988454778439e+02,7.798647388551451058e+02,4.765082094088018493e+03,9.268007161871169046e+02,9.446745872497558594e+00,-7.266727685928344727e-01,-1.223870038986206055e+00,2.360000000000000000e+02
4.927084790043682005e+02,6.548829647257789475e+02,1.016706498030103830e+03,1.089877384321272075e+03,6.725945607989870041e+02,6.736131588240737074e+02,4.905931079096289977e+03,8.201892504663235286e+02,9.446745872497558594e+00,-7.266727685928344727e-01,-1.223870038986206055e+00,2.370000000000000000e+02
6.174610501614624809e+02,5.367481645534767267e+02,9.234316758510972249e+02,1.055060869065545830e+03,5.983291562658355360e+02,5.537488675639187932e+02,5.118835237591265468e+03,6.970503929135070393e+02,9.446745872497558594e+00,-7.266727685928344727e-01,-1.223870038986206055e+00,2.380000000000000000e+02
6.029814314496761654e+02,6.258835812418205933e+02,9.003291898580546331e+02,9.886759527513795547e+02,5.768352843970833419e+02,5.851939563901196379e+02,4.958754364940879896e+03,7.225984085357354161e+02,9.446745872497558594e+00,-7.266727685928344727e-01,-1.223870038986206055e+00,2.390000000000000000e+02
4.580896822516679094e+02,8.019990226888148754e+02,9.744071599110393436e+02,9.755121676950188885e+02,6.379189955109509356e+02,7.256051167184004953e+02,4.644696015651756170e+03,8.574374301278712664e+02,9.446745872497558594e+00,-7.266727685928344727e-01,-1.223870038986206055e+00,2.400000000000000000e+02
3.720741351164942898e+02,8.240101863696331748e+02,1.037588019884020468e+03,1.026743654711679483e+03,6.974108349316816202e+02,7.820353236962027950e+02,4.540936647084909055e+03,9.112761221298005694e+02,9.446745872497558594e+00,-7.266727685928344727e-01,-1.223870038986206055e+00,2.410000000000000000e+02
4.524965437880819081e+02,6.630766250571823548e+02,9.961072611412359947e+02,1.064294369305961482e+03,6.731590124357271634e+02,6.768994494944572580e+02,4.632768620082155394e+03,8.060088357850745524e+02,9.446745872497558594e+00,-7.266727685928344727e-01,-1.223870038986206055e+00,2.420000000000000000e+02
5.763662108242751856e+02,5.404033071479188948e+02,9.006775389095964783e+02,1.029529241425138935e+03,5.992886800788469372e+02,5.568862292090757364e+02,4.697228387483768529e+03,6.843569816882877603e+02,9.446745872497558594e+00,-7.266727685928344727e-01,-1.223870038986206055e+00,2.430000000000000000e+02
5.606746683584469793e+02,6.222089131048060153e+02,8.763254603634395608e+02,9.644446517822548230e+02,5.788236522127335775e+02,5.898532829350242537e+02,4.600931812368155079e+03,7.117456477003561304e+02,9.446745872497558594e+00,-7.266727685928344727e-01,-1.223870038986206055e+00,2.440000000000000000e+02
4.160149686166751053e+02,7.929984196271907422e+02,9.493134014089555421e+02,9.521523193444859317e+02,6.402388439645369544e+02,7.300769173864914592e+02,4.381819603585447112e+03,8.460931123169411876e+02,9.446745872497558594e+00,-7.266727685928344727e-01,-1.223870038986206055e+00,2.450000000000000000e+02
3.322164228912788531e+02,8.153640009206164905e+02,1.010931068411534397e+03,1.000866693557969484e+03,6.979428079429171703e+02,7.811785622007873826e+02,4.224062341154683963e+03,8.960243655204540119e+02,9.446745872497558594e+00,-7.266727685928344727e-01,-1.223870038986206055e+00,2.460000000000000000e+02
4.155550456128839869e+02,6.558846650143877923e+02,9.677995631672310992e+02,1.033169603164908040e+03,6.712956255622425488e+02,6.705272456233842604e+02,4.270583455410824172e+03,7.869070544766473176e+02,9.446745872497558594e+00,-7.266727685928344727e-01,-1.223870038986206055e+00,2.470000000000000000e+02
5.414449948854953618e+02,5.307884923057149535e+02,8.708955129973128351e+02,9.938279059526503261e+02,5.963927436169437897e+02,5.505625783817740739e+02,4.391808107676844884e+03,6.647449993601808274e+02,9.446745872497558594e+00,-7.266727685928344727e-01,-1.223870038986206055e+00,2.480000000000000000e+02
5.264525160772191157e+02,6.085352133301730646e+02,8.457923700874844144e+02,9.260780966626043664e+02,5.762826978499588222e+02,5.860588848223342211e+02,4.322272984421471847e+03,6.941692469119525413e+02,9.446745872497558594e+00,-7.266727685928344727e-01,-1.223870038986206055e+00,2.490000000000000000e+02
3.813025751199074875e+02,7.776377428158884868e+02,9.200802522453263919e+02,9.125076711605634046e+02,6.389544341606342641e+02,7.259809455578397319e+02,4.063108042463903985e+03,8.308943356366144144e+02,9.446745872497558594e+00,-7.266727685928344727e-01,-1.223870038986206055e+00,2.500000000000000000e+02
2.955342054732973338e+02,8.004786803747474551e+02,9.849023767346120621e+02,9.624728720836237699e+02,6.984967915050974625e+02,7.758520385375504702e+02,3.901858489614787686e+03,8.827201195128864128e+02,9.446745872497558594e+00,-7.266727685928344727e-01,-1.223870038986206055e+00,2.510000000000000000e+02
3.757751324790860963e+02,6.423467938321523434e+02,9.445242711411437995e+02,9.996199656752532974e+02,6.730076703669537892e+02,6.668447390637466015e+02,3.985251296943924899e+03,7.744790293910155015e+02,9.446745872497558594e+00,-7.266727685928344727e-01,-1.223870038986206055e+00,2.520000000000000000e+02
4.995851225355563656e+02,5.199063958199722038e+02,8.486708243046386997e+02,9.663364544528376427e+02,5.973007980168449649e+02,5.490120884294274219e+02,4.109364372089738026e+03,6.513230857662802009e+02,9.446745872497558594e+00,-7.266727685928344727e-01,-1.223870038986206055e+00,2.530000000000000000e+02
4.856106075792722550e+02,6.008854304700817011e+02,8.239932966664473497e+02,9.024161308634502348e+02,5.747927549255364283e+02,5.832064570106922474e+02,4.023641077108522950e+03,6.782496563142021841e+02,9.446745872497558594e+00,-7.266727685928344727e-01,-1.223870038986206055e+00,2.540000000000000000e+02
3.439337687394763634e+02,7.714620781752923904e+02,8.984258158429092873e+02,8.896629425349910889e+02,6.345114542798828552e+02,7.197939207271101623e+02,3.776517728489820001e+03,8.126657633572208397e+02,9.446745872497558594e+00,-7.266727685928344727e-01,-1.223870038986206055e+00,2.550000000000000000e+02
2.616586350868201407e+02,7.939541661423504593e+02,9.623057163900994055e+02,9.382676269429357490e+02,6.912142531455647259e+02,7.672870193851549629e+02,3.633726782144231038e+03,8.635644108096021228e+02,9.446745872497558594e+00,-7.266727685928344727e-01,-1.223870038986206055e+00,2.560000000000000000e+02
3.443501846045674029e+02,6.359136015946082807e+02,9.211619966711477900e+02,9.727339491428701876e+02,6.641956826498062583e+02,6.564112840849029453e+02,3.713911111231915129e+03,7.555725916861292717e+02,9.446745872497558594e+00,-7.266727685928344727e-01,-1.223870038986206055e+00,2.570000000000000000e+02
4.704047475292009040e+02,5.144785481012186210e+02,8.271532554766417888e+02,9.373780172552860677e+02,5.892107740232395372e+02,5.364124032540767075e+02,3.832485301723543671e+03,6.328083962553682795e+02,9.446745872497558594e+00,-7.266727685928344727e-01,-1.223870038986206055e+00,2.580000000000000000e+02
4.591141667228512233e+02,5.957700181275704381e+02,8.057775644041685155e+02,8.737900607393112296e+02,5.679408814499174696e+02,5.696747015215760257e+02,3.755212506621926877e+03,6.591587082115320300e+02,9.446745872497558594e+00,-7.266727685928344727e-01,-1.223870038986206055e+00,2.590000000000000000e+02
3.202295068372477544e+02,7.657550959096561201e+02,8.808807977990345535e+02,8.623359042137417418e+02,6.265207727651113601e+02,7.069862925989427822e+02,3.516657505811679584e+03,7.916208387663764370e+02,9.446745872497558594e+00,-7.649186849594116211e-01,-1.185624003410339355e+00,2.600000000000000000e+02
2.404262597910019394e+02,7.880188980944230934e+02,9.416615490247886555e+02,9.104576631452537185e+02,6.798992293525489004e+02,7.548678204161224130e+02,3.375586656528521416e+03,8.400324985981496866e+02,9.446745872497558594e+00,-7.649186849594116211e-01,-1.185624003410339355e+00,2.610000000000000000e+02
3.249098700549202476e+02,6.299855497938679036e+02,8.965450669105739507e+02,9.430315940625614530e+02,6.502655921537952963e+02,6.431117430962895014e+02,3.460076654198943288e+03,7.303097988103309035e+02,9.446745872497558594e+00,-7.649186849594116211e-01,-1.185624003410339355e+00,2.620000000000000000e+02
4.516940827967628138e+02,5.076515339607913120e+02,7.997969868779300668e+02,9.063275014775354066e+02,5.746854426773788873e+02,5.214455251383596988e+02,3.585172598297696823e+03,6.066450347157669967e+02,9.446745872497558594e+00,-7.649186849594116211e-01,-1.185624003410339355e+00,2.630000000000000000e+02
4.406253375705564395e+02,5.875891364694998629e+02,7.766266684793599779e+02,8.415875418193518271e+02,5.536468282594150878e+02,5.516384732235801494e+02,3.510253634623015387e+03,6.316149886255843739e+02,9.446745872497558594e+00,-7.649186849594116211e-01,-1.185624003410339355e+00,2.640000000000000000e+02
3.029050034373176459e+02,7.572184627450205880e+02,8.513842791946553916e+02,8.285281414270211826e+02,6.121322854474592532e+02,6.842868737928101837e+02,3.271296104048487905e+03,7.614403834085751441e+02,9.446745872497558594e+00,-7.649186849594116211e-01,-1.185624003410339355e+00,2.650000000000000000e+02
2.255642213958617504e+02,7.804242682663052619e+02,9.148760684720527934e+02,8.763987829664602032e+02,6.648425811846045690e+02,7.285078073193044474e+02,3.131188872210572299e+03,8.072532369600085076e+02,9.446745872497558594e+00,-7.649186849594116211e-01,-1.185624003410339355e+00,2.660000000000000000e+02
3.124241658228856977e+02,6.241869862218090930e+02,8.744980512097645260e+02,9.107639425744409891e+02,6.339285149251891198e+02,6.165043901640665354e+02,3.216258447188833088e+03,6.971197403980095260e+02,9.446745872497558594e+00,-7.649186849594116211e-01,-1.185624003410339355e+00,2.670000000000000000e+02
4.403971972422550607e+02,5.042285728594870307e+02,7.805622312948744366e+02,8.751949864411035378e+02,5.568145429376918401e+02,4.973653971996236578e+02,3.342137078265830496e+03,5.755761713255787981e+02,9.446745872497558594e+00,-7.649186849594116211e-01,-1.185624003410339355e+00,2.680000000000000000e+02
4.295670365477180894e+02,5.859730613116944369e+02,7.559399892176215872e+02,8.099649257713008410e+02,5.346444697982933576e+02,5.315668261002947474e+02,3.269647895820759004e+03,6.033944153372758592e+02,9.446745872497558594e+00,-7.649186849594116211e-01,-1.185624003410339355e+00,2.690000000000000000e+02
2.915387336898947979e+02,7.549660705232281543e+02,8.264932283040643597e+02,7.977644454020173725e+02,5.927424811172577392e+02,6.691711703578348533e+02,3.035729519658096251e+03,7.355230807095631462e+02,9.446745872497558594e+00,-7.649186849594116211e-01,-1.185624003410339355e+00,2.700000000000000000e+02
2.135523710502056929e+02,7.749699945678703443e+02,8.856930990850960370e+02,8.484222480257103598e+02,6.464765195224872514e+02,7.171514244419886381e+02,2.902111964336556412e+03,7.838466132074036068e+02,9.446745872497558594e+00,-7.649186849594116211e-01,-1.185624003410339355e+00,2.710000000000000000e+02
3.002846251293885871e+02,6.148839862708528017e+02,8.423879893164885289e+02,8.834414045971152518e+02,6.188860667115559409e+02,6.052451511536382895e+02,2.993025966994006012e+03,6.770127018488337853e+02,9.446745872497558594e+00,-7.649186849594116211e-01,-1.185624003410339355e+00,2.720000000000000000e+02
4.294415150050062948e+02,4.915114218896123930e+02,7.475020636796289182e+02,8.451477570644783555e+02,5.460849418153266015e+02,4.842568519898031809e+02,3.123394268225962151e+03,5.581091729527288408e+02,9.446745872497558594e+00,-7.649186849594116211e-01,-1.185624003410339355e+00,2.730000000000000000e+02
4.204145298787443608e+02,5.693456073496963654e+02,7.238416333849108923e+02,7.781940522074164619e+02,5.259744784693466499e+02,5.184154990662091222e+02,3.054684129401401151e+03,5.865672129260774454e+02,9.446745872497558594e+00,-7.649186849594116211e-01,-1.185624003410339355e+00,2.740000000000000000e+02
2.834645056333974935e+02,7.330703118404935594e+02,7.959197159262503192e+02,7.674598943990131374e+02,5.832501170946325146e+02,6.573882654380286112e+02,2.824438472509762505e+03,7.184170085194327839e+02,9.446745872497558594e+00,-7.649186849594116211e-01,-1.185624003410339355e+00,2.750000000000000000e+02
2.055545442990805896e+02,7.472898565602672534e+02,8.555257154422752137e+02,8.193038171867483470e+02,6.360531854877372098e+02,7.054321400426160835e+02,2.694656297733694373e+03,7.671934695081708924e+02,9.446745872497558594e+00,-7.649186849594116211e-01,-1.185624003410339355e+00,2.760000000000000000e+02
2.918843645192609983e+02,5.829542769493036758e+02,8.111959877272256563e+02,8.532913938923775277e+02,6.083844126469884941e+02,5.931610537517490229e+02,2.789653791116179491e+03,6.611815264964197922e+02,9.446745872497558594e+00,-7.649186849594116211e-01,-1.185624003410339355e+00,2.770000000000000000e+02
4.205020863821628154e+02,4.586708330261089941e+02,7.148823920560826082e+02,8.145951536156935617e+02,5.340923686296755477e+02,4.729384622438774386e+02,2.924100892226979340e+03,5.422305018592633132e+02,9.446745872497558594e+00,-7.649186849594116211e-01,-1.185624003410339355e+00,2.780000000000000000e+02
4.112588852040862548e+02,5.390825425803850521e+02,6.905718452674555010e+02,7.488197401865181746e+02,5.107008678431502631e+02,5.057318811574405117e+02,2.859317898307355790e+03,5.696479697582281005e+02,9.446745872497558594e+00,-7.649186849594116211e-01,-1.185624003410339355e+00,2.790000000000000000e+02
2.751098539061786141e+02,7.075168005296191041e+02,7.631735990339911950e+02,7.374099353332767350e+02,5.655912699985801737e+02,6.388206542069001443e+02,2.633207305864973023e+03,6.997944187626180792e+02,9.446745872497558594e+00,-7.649186849594116211e-01,-1.185624003410339355e+00,2.800000000000000000e+02
1.988113072607084177e+02,7.273926336368676857e+02,8.235157723845077271e+02,7.860075218272704660e+02,6.174627290639073181e+02,6.823151147482149099e+02,2.507708334973205638e+03,7.461967778944072052e+02,9.446745872497558594e+00,-7.649186849594116211e-01,-1.185624003410339355e+00,2.810000000000000000e+02
2.861547972513908462e+02,5.685311618058076419e+02,7.786717687975014996e+02,8.188109291305281658e+02,5.880008639323732496e+02,5.733164241884824150e+02,2.606060531216917298e+03,6.377644820390587483e+02,9.446745872497558594e+00,-7.649186849594116211e-01,-1.185624003410339355e+00,2.820000000000000000e+02
4.142693037639655813e+02,4.467127497123319699e+02,6.808165779074643069e+02,7.836379214446897095e+02,5.113373185098498652e+02,4.603293682682979124e+02,2.742294300548106548e+03,5.175006142363345134e+02,9.446745872497558594e+00,-7.649186849594116211e-01,-1.185624003410339355e+00,2.830000000000000000e+02
4.039913079092220869e+02,5.240966659228324716e+02,6.555266797689582745e+02,7.230702817159981350e+02,4.881548069774726173e+02,4.962521764757002529e+02,2.678780316506443341e+03,5.447532663706933818e+02,9.446745872497558594e+00,-7.649186849594116211e-01,-1.185624003410339355e+00,2.840000000000000000e+02
2.680261890807414602e+02,6.864105353491640926e+02,7.276184514638644032e+02,7.157937754500908341e+02,5.456199310734518804e+02,6.284532103707024362e+02,2.454195064502477180e+03,6.749250253365808021e+02,9.446745872497558594e+00,-7.649186849594116211e-01,-1.185624003410339355e+00,2.850000000000000000e+02
1.931688188936750521e+02,7.026450441309298185e+02,7.865739399208632676e+02,7.683305083104751247e+02,5.982849581353075337e+02,6.715382373444081168e+02,2.330781032716186019e+03,7.211438543999211106e+02,9.446745872497558594e+00,-7.649186849594116211e-01,-1.185624003410339355e+00,2.860000000000000000e+02
2.813695548764299019e+02,5.444405320547066367e+02,7.407867770582070079e+02,8.048022030187421478e+02,5.667235980775003554e+02,5.611047952966910088e+02,2.430368035451167088e+03,6.124983699749627704e+02,9.446745872497558594e+00,-7.649186849594116211e-01,-1.185624003410339355e+00,2.870000000000000000e+02
4.090144709659070941e+02,4.246338775608619471e+02,6.453030658804600534e+02,7.700812278741104819e+02,4.888125469704591524e+02,4.424814403777309053e+02,2.566924101803138910e+03,4.920157617400927847e+02,9.446745872497558594e+00,-7.649186849594116211e-01,-1.185624003410339355e+00,2.880000000000000000e+02
3.988488326422739192e+02,5.032134730363795825e+02,6.245174551916461496e+02,7.059705332483063103e+02,4.672030952867316955e+02,4.728842025464327889e+02,2.504734663699884550e+03,5.192757174697926530e+02,9.446745872497558594e+00,-7.649186849594116211e-01,-1.185624003410339355e+00,2.890000000000000000e+02
2.651090133698671707e+02,6.662346681933686341e+02,6.989490137468492321e+02,6.944540457656567014e+02,5.263372843790657498e+02,6.052603592207869951e+02,2.284454584926672396e+03,6.500527773649537266e+02,9.446745872497558594e+00,-7.649186849594116211e-01,-1.185624003410339355e+00,2.900000000000000000e+02
1.929746330309717450e+02,6.826960509306336462e+02,7.575204985534765001e+02,7.446132701311562414e+02,5.789647418276126700e+02,6.511670301251651836e+02,2.166401321857600124e+03,6.971632769268362608e+02,9.446745872497558594e+00,-8.414105772972106934e-01,-1.300361871719360352e+00,2.910000000000000000e+02
2.821596791363481316e+02,5.241124940698991850e+02,7.118039993159909500e+02,7.798108326645506168e+02,5.479804498322155268e+02,5.407904821522224665e+02,2.270118096852289455e+03,5.892588823911064537e+02,9.446745872497558594e+00,-8.414105772972106934e-01,-1.300361871719360352e+00,2.920000000000000000e+02
4.095335534804107738e+02,4.045011331848545524e+02,6.173384347848113975e+02,7.438167870199085883e+02,4.728880992212725687e+02,4.213930359817113640e+02,2.409392041771810909e+03,4.697548606216878397e+02,9.446745872497558594e+00,-8.414105772972106934e-01,-1.300361871719360352e+00,2.930000000000000000e+02
3.993989740787947085e+02,4.836446521443194797e+02,5.964955685049390013e+02,6.786102874720454565e+02,4.539972688512862078e+02,4.536194734772161610e+02,2.349889390190423001e+03,4.982463040159454977e+02,9.446745872497558594e+00,-8.414105772972106934e-01,-1.300361871719360352e+00,2.940000000000000000e+02
2.659725549526810937e+02,6.448290926198351372e+02,6.709886152381423017e+02,6.660068659030494018e+02,5.134816622314356209e+02,5.871189194870330539e+02,2.132446739703627827e+03,6.291510727504228271e+02,9.446745872497558594e+00,-8.414105772972106934e-01,-1.300361871719360352e+00,2.950000000000000000e+02
1.943419301871799689e+02,6.567129721289711597e+02,7.328441780593730073e+02,7.145584735869797441e+02,5.650055785315835237e+02,6.298082837139845651e+02,2.016609850261389511e+03,6.745286755259403435e+02,9.446745872497558594e+00,-8.414105772972106934e-01,-1.300361871719360352e+00,2.960000000000000000e+02
2.855494244490619167e+02,4.948443571929255995e+02,6.925380546992018935e+02,7.482450113225386303e+02,5.326385876812164497e+02,5.153781613856535841e+02,2.122453176927985623e+03,5.645255752009288699e+02,9.446745872497558594e+00,-8.414105772972106934e-01,-1.300361871719360352e+00,2.970000000000000000e+02
4.168561865531482908e+02,3.755643834971051547e+02,6.017224495707778260e+02,7.118031449273694307e+02,4.552971898743780912e+02,3.952469647677535249e+02,2.264933125398296397e+03,4.442543819826059917e+02,9.446745872497558594e+00,-8.414105772972106934e-01,-1.300361871719360352e+00,2.980000000000000000e+02
4.108929636105276586e+02,4.564573551393805246e+02,5.821643714568035648e+02,6.468172140602182481e+02,4.334305483656607976e+02,4.275410633209157822e+02,2.209359671637161227e+03,4.727301477829041687e+02,9.446745872497558594e+00,-8.414105772972106934e-01,-1.300361871719360352e+00,2.990000000000000000e+02
2.809076459670905024e+02,6.195366569555972092e+02,6.574184653195061401e+02,6.339825607569546264e+02,4.909367646685022919e+02,5.581389090652755840e+02,1.995473042933190300e+03,6.027391720830019040e+02,9.446745872497558594e+00,-8.414105772972106934e-01,-1.300361871719360352e+00,3.000000000000000000e+02
2.125792636202750145e+02,6.348206193477853958e+02,7.188841420169228513e+02,6.815587700973846950e+02,5.423062488685209246e+02,5.970634199257510772e+02,1.882714794928913761e+03,6.466414771114614268e+02,9.446745872497558594e+00,-8.414105772972106934e-01,-1.300361871719360352e+00,3.010000000000000000e+02
3.065932869557000231e+02,4.759356985105769127e+02,6.749981598686354118e+02,7.142668758921499830e+02,5.111141622671566438e+02,4.827044491247379483e+02,1.991117232988231990e+03,5.368366402158662822e+02,9.446745872497558594e+00,-8.414105772972106934e-01,-1.300361871719360352e+00,3.020000000000000000e+02
4.391024333670320630e+02,3.538500757236070058e+02,5.782723932501576201e+02,6.780511565385131689e+02,4.358865583043534571e+02,3.671942320614944038e+02,2.134940154981908563e+03,4.192363622164648405e+02,9.446745872497558594e+00,-8.414105772972106934e-01,-1.300361871719360352e+00,3.030000000000000000e+02
4.336416156324630720e+02,4.258073317237431183e+02,5.534643870404142945e+02,6.152987569859942596e+02,4.159351699638900755e+02,4.054257040018201224e+02,2.080022588262450881e+03,4.503673368730123912e+02,9.446745872497558594e+00,-8.414105772972106934e-01,-1.300361871719360352e+00,3.040000000000000000e+02
3.052887232477187354e+02,5.805800747874927765e+02,6.255361243897295935e+02,6.061253188044174749e+02,4.730400096195080550e+02,5.406569148714443145e+02,1.867990585486128111e+03,5.805760785986149131e+02,9.446745872497558594e+00,-8.414105772972106934e-01,-1.300361871719360352e+00,3.050000000000000000e+02
2.390733894220138609e+02,5.935482269316235033e+02,6.854391119454576256e+02,6.573814740200650704e+02,5.218881340104871924e+02,5.831828796896315907e+02,1.758318026605964405e+03,6.236283315801156277e+02,9.446745872497558594e+00,-8.414105772972106934e-01,-1.300361871719360352e+00,3.060000000000000000e+02
3.337066255611280212e+02,4.378192367313640716e+02,6.414096778120401723e+02,6.931488663608761271e+02,4.891457908849479281e+02,4.721752910707218689e+02,1.868671702401297807e+03,5.146830315000461269e+02,9.446745872497558594e+00,-8.414105772972106934e-01,-1.300361871719360352e+00,3.070000000000000000e+02
4.655762262947828276e+02,3.224480578213660920e+02,5.462899900989195885e+02,6.593494782964116894e+02,4.145492362333461642e+02,3.581409026645324047e+02,2.012442704643544857e+03,3.989120657361490885e+02,9.446745872497558594e+00,-8.414105772972106934e-01,-1.300361871719360352e+00,3.080000000000000000e+02
4.597329408961668378e+02,4.035516386670515203e+02,5.243207864624182548e+02,5.978591195977242023e+02,3.953047108234532061e+02,3.942627458357164869e+02,1.957639589416394301e+03,4.302908112882978457e+02,9.446745872497558594e+00,-8.414105772972106934e-01,-1.300361871719360352e+00,3.090000000000000000e+02
3.309839250332734082e+02,5.667560112658957223e+02,5.987761494617298013e+02,5.886828360784202232e+02,4.524564616413372278e+02,5.263611607869006548e+02,1.747145219226222252e+03,5.598304375109801185e+02,9.446745872497558594e+00,-8.414105772972106934e-01,-1.300361871719360352e+00,3.100000000000000000e+02
2.632137862071467680e+02,5.837576829416811961e+02,6.594073561130389862e+02,6.400097789278806886e+02,5.025118470957131649e+02,5.688722026818886661e+02,1.640462905352149392e+03,6.038048509667714825e+02,9.446745872497558594e+00,-8.414105772972106934e-01,-1.300361871719360352e+00,3.110000000000000000e+02
3.555303363542843726e+02,4.283051561871106969e+02,6.153481941930222092e+02,6.771304350890022761e+02,4.721376191689232655e+02,4.602960150313974736e+02,1.754229873525844596e+03,4.969220131678739563e+02,9.408499717712402344e+00,-7.649186849594116211e-01,-1.300361871719360352e+00,3.120000000000000000e+02
4.850752449827414239e+02,3.129632856630960305e+02,5.211365686526587524e+02,6.456216134872738621e+02,3.988874792507158418e+02,3.476469964189018356e+02,1.901951990697634756e+03,3.822070477923953149e+02,9.408499717712402344e+00,-7.649186849594116211e-01,-1.300361871719360352e+00,3.130000000000000000e+02
4.762702796705998480e+02,3.947114108262994705e+02,5.008467959532645182e+02,5.867517021750754793e+02,3.800441793854151911e+02,3.844758707452892850e+02,1.851580693077848991e+03,4.140192381400356680e+02,9.408499717712402344e+00,-7.649186849594116211e-01,-1.300361871719360352e+00,3.140000000000000000e+02
3.438699519591609715e+02,5.577943677494931762e+02,5.765405501566274324e+02,5.803807204682052543e+02,4.388997501063277014e+02,5.185792174977796094e+02,1.645256423691862437e+03,5.450143483859992557e+02,9.408499717712402344e+00,-7.649186849594116211e-01,-1.300361871719360352e+00,3.150000000000000000e+02
2.739988642641037586e+02,5.746390845955611439e+02,6.388651843359330087e+02,6.337455970828304999e+02,4.921101183383907482e+02,5.618162191057053860e+02,1.540434655446770194e+03,5.909065231512176979e+02,9.408499717712402344e+00,-7.649186849594116211e-01,-1.300361871719360352e+00,3.160000000000000000e+02
3.675083908304368379e+02,4.212565052993522841e+02,5.987082234279987460e+02,6.709251715785794659e+02,4.643855215947260149e+02,4.496999282278848113e+02,1.653903006127620756e+03,4.849238593252375722e+02,9.408499717712402344e+00,-7.649186849594116211e-01,-1.300361871719360352e+00,3.170000000000000000e+02
5.001514942477369914e+02,3.100217316602593201e+02,5.089186111520066333e+02,6.383517260044973227e+02,3.925257651693136722e+02,3.329659022915402602e+02,1.800923632602694852e+03,3.705437885049086617e+02,9.408499717712402344e+00,-7.649186849594116211e-01,-1.300361871719360352e+00,3.180000000000000000e+02
4.943289306010847213e+02,3.952522280608427536e+02,4.897838590893552464e+02,5.793160877415284631e+02,3.742222752288653282e+02,3.705967011742541217e+02,1.751277092781652755e+03,4.037111363608091779e+02,9.408499717712402344e+00,-7.649186849594116211e-01,-1.300361871719360352e+00,3.190000000000000000e+02
3.650634332828340121e+02,5.594790767602808046e+02,5.633337455725122709e+02,5.735182421979079663e+02,4.326249609813312418e+02,5.091078486533588148e+02,1.547576233976251388e+03,5.376360855705497670e+02,9.408499717712402344e+00,-7.649186849594116211e-01,-1.300361871719360352e+00,3.200000000000000000e+02
2.988066302162624197e+02,5.758485677269181906e+02,6.241419394298063708e+02,6.261154805848163960e+02,4.847172792423880310e+02,5.558768493188435968e+02,1.446446093170139648e+03,5.871839616322176880e+02,9.408499717712402344e+00,-7.649186849594116211e-01,-1.300361871719360352e+00,3.210000000000000000e+02
3.942430598954160814e+02,4.221609910898714588e+02,5.855431236540025566e+02,6.607862734481277585e+02,4.569373394743233803e+02,4.459585921836769558e+02,1.563707079456879001e+03,4.841183451091746974e+02,9.408499717712402344e+00,-7.649186849594116211e-01,-1.300361871719360352e+00,3.220000000000000000e+02
5.255123546558534144e+02,3.117370282017345744e+02,4.996790644861539477e+02,6.260554641554044792e+02,3.871774097482375510e+02,3.312943195307707356e+02,1.714262222994497279e+03,3.710023504421660618e+02,9.408499717712402344e+00,-7.649186849594116211e-01,-1.300361871719360352e+00,3.230000000000000000e+02
5.172036281257023802e+02,3.982011921495541173e+02,4.857287972478879965e+02,5.670043287612061249e+02,3.721790241731832793e+02,3.694976770025605219e+02,1.668025964499232941e+03,4.041295698866524617e+02,9.408499717712402344e+00,-7.649186849594116211e-01,-1.300361871719360352e+00,3.240000000000000000e+02
3.870012722240426228e+02,5.628238505803383305e+02,5.646638438602858514e+02,5.631418201206033700e+02,4.335868029725970700e+02,5.066327149865392130e+02,1.467948849765045452e+03,5.374517007759786793e+02,9.408499717712402344e+00,-7.649186849594116211e-01,-1.300361871719360352e+00,3.250000000000000000e+02
3.202685391950071789e+02,5.787187695903012354e+02,6.289829953444641433e+02,6.184959427806752501e+02,4.876890890891954768e+02,5.534876423924324627e+02,1.370645616838111891e+03,5.863635477197349246e+02,9.408499717712402344e+00,-7.649186849594116211e-01,-1.300361871719360352e+00,3.260000000000000000e+02
4.134321740686136764e+02,4.248859603589517064e+02,5.908257890665990999e+02,6.558439407114237838e+02,4.607931604821278597e+02,4.475996356899304374e+02,1.491512125957669923e+03,4.838446872215645271e+02,9.408499717712402344e+00,-7.649186849594116211e-01,-1.300361871719360352e+00,3.270000000000000000e+02
5.414836195315801888e+02,3.155010191979454248e+02,5.039167619418694812e+02,6.229955061075161211e+02,3.911431101264970494e+02,3.383517654779025179e+02,1.645012789904314559e+03,3.734500130546730361e+02,9.408499717712402344e+00,-7.649186849594116211e-01,-1.300361871719360352e+00,3.280000000000000000e+02
5.311261423274481785e+02,4.041780424379576289e+02,4.898466746652848087e+02,5.643169155692194181e+02,3.765362063167121960e+02,3.790578285801748279e+02,1.601330457420219318e+03,4.096182980850899185e+02,9.408499717712402344e+00,-7.649186849594116211e-01,-1.300361871719360352e+00,3.290000000000000000e+02
3.996638355040413444e+02,5.719931774732249323e+02,5.705552444965651375e+02,5.591387349816322967e+02,4.396227392750079161e+02,5.146261016696516890e+02,1.404171908960270230e+03,5.433370396780301235e+02,9.408499717712402344e+00,-7.649186849594116211e-01,-1.300361871719360352e+00,3.300000000000000000e+02
3.307974823109034332e+02,5.916445814696126035e+02,6.383048191674752161e+02,6.124939242308028042e+02,4.965729661944751570e+02,5.581764334983599838e+02,1.308983961361533147e+03,5.907590690085562528e+02,9.408499717712402344e+00,-7.649186849594116211e-01,-1.300361871719360352e+00,3.310000000000000000e+02
4.207324335440207506e+02,4.409953714714574744e+02,6.039231527317533619e+02,6.488665032907592831e+02,4.724767143494427728e+02,4.500380603521225567e+02,1.432136089215317043e+03,4.883075592003006022e+02,9.408499717712402344e+00,-7.649186849594116211e-01,-1.300361871719360352e+00,3.320000000000000000e+02
5.448311265722149983e+02,3.329395595738969860e+02,5.186127018648003286e+02,6.168172017074793985e+02,4.043096500333886070e+02,3.402555502074283140e+02,1.587479848113551270e+03,3.800873972883673559e+02,9.408499717712402344e+00,-7.649186849594116211e-01,-1.300361871719360352e+00,3.330000000000000000e+02
5.294287752740638098e+02,4.205296040543653362e+02,5.024454617690098530e+02,5.596984341522365867e+02,3.896833382845252345e+02,3.812699093001901929e+02,1.545159092115442036e+03,4.184247078557600616e+02,9.408499717712402344e+00,-7.649186849594116211e-01,-1.300361871719360352e+00,3.340000000000000000e+02
3.919510148541667149e+02,5.851297607423803129e+02,5.789573308640101459e+02,5.554396859199514438e+02,4.523427239965712943e+02,5.181251951058002305e+02,1.349355812932364643e+03,5.542194495389085205e+02,9.408499717712402344e+00,-7.649186849594116211e-01,-1.300361871719360352e+00,3.350000000000000000e+02
3.173802503262922983e+02,6.009069618377543520e+02,6.434281990878334909e+02,6.089603569367318414e+02,5.095922601449492504e+02,5.646662567985113128e+02,1.257129073748918017e+03,6.047937600110199128e+02,9.408499717712402344e+00,-7.649186849594116211e-01,-1.300361871719360352e+00,3.360000000000000000e+02
4.030808223459898727e+02,4.483312261672690511e+02,6.083565708631540474e+02,6.455517403339654265e+02,4.864188546128316375e+02,4.596276535635479377e+02,1.382735930646595079e+03,5.050145604866193025e+02,9.484992027282714844e+00,-8.031646609306335449e-01,-1.223870038986206055e+00,3.370000000000000000e+02
5.250022505437591462e+02,3.416029409233051410e+02,5.248766582305688644e+02,6.141719691217513173e+02,4.188897172083525220e+02,3.504581840502869454e+02,1.539529583622861537e+03,3.966136471621139208e+02,9.484992027282714844e+00,-8.031646609306335449e-01,-1.223870038986206055e+00,3.380000000000000000e+02
5.099697210487647681e+02,4.315629823705239687e+02,5.116077860736113507e+02,5.581034251436976774e+02,4.041006229375307157e+02,3.903358271485703881e+02,1.498404597403641674e+03,4.330035002443764824e+02,9.484992027282714844e+00,-8.031646609306335449e-01,-1.223870038986206055e+00,3.390000000000000000e+02
3.750721614645153750e+02,5.966240173258702271e+02,5.895035901884766645e+02,5.553589872090451536e+02,4.657082496802613605e+02,5.269697709826286882e+02,1.304397959413516219e+03,5.675980488659806724e+02,9.484992027282714844e+00,-8.031646609306335449e-01,-1.223870038986206055e+00,3.400000000000000000e+02
3.035311999135592487e+02,6.116203017165680649e+02,6.523054749297843955e+02,6.108497567696867918e+02,5.210571003285404004e+02,5.739937109933744068e+02,1.213652755390678067e+03,6.174902252746032900e+02,9.484992027282714844e+00,-8.031646609306335449e-01,-1.223870038986206055e+00,3.410000000000000000e+02
3.909641121346940054e+02,4.595729274599616474e+02,6.142203522717463784e+02,6.492919200476389960e+02,4.958568461764480162e+02,4.687273702326165221e+02,1.338861847016014508e+03,5.162524304937469424e+02,9.484992027282714844e+00,-8.031646609306335449e-01,-1.223870038986206055e+00,3.420000000000000000e+02
5.132101422115520108e+02,3.541804488007728651e+02,5.295318403374185436e+02,6.188132246521126945e+02,4.274388957782066427e+02,3.600919761523546185e+02,1.494106354534262209e+03,4.066575503023595957e+02,9.484992027282714844e+00,-8.031646609306335449e-01,-1.223870038986206055e+00,3.430000000000000000e+02
4.983194051853934070e+02,4.439330224569785059e+02,5.178864571532722039e+02,5.619460135324479779e+02,4.129583021785438177e+02,4.021000887645095645e+02,1.452673483815742657e+03,4.434996954967100464e+02,9.484992027282714844e+00,-8.031646609306335449e-01,-1.223870038986206055e+00,3.440000000000000000e+02
3.644881010332028382e+02,6.079775565122035914e+02,5.988978654499223921e+02,5.562982154250057647e+02,4.745235304247216845e+02,5.389559175909816986e+02,1.260476865582138998e+03,5.788005540670528717e+02,9.484992027282714844e+00,-8.031646609306335449e-01,-1.223870038986206055e+00,3.450000000000000000e+02
2.947936038429397740e+02,6.234801351015594264e+02,6.644777966712863417e+02,6.076316029744484695e+02,5.286467872493885807e+02,5.826498599513543013e+02,1.172166663906711619e+03,6.277414874228306871e+02,9.484992027282714844e+00,-8.031646609306335449e-01,-1.223870038986206055e+00,3.460000000000000000e+02
3.837339232873273431e+02,4.721533318440269795e+02,6.269668780138345028e+02,6.430647912449421710e+02,5.020915000521163165e+02,4.753377847220981494e+02,1.299125821663401439e+03,5.248203019487264100e+02,9.484992027282714844e+00,-8.031646609306335449e-01,-1.223870038986206055e+00,3.470000000000000000e+02
5.068460683500597952e+02,3.645639919661916792e+02,5.392141287654012558e+02,6.127451498008886119e+02,4.328131633113371208e+02,3.692199822513284744e+02,1.455520011661661556e+03,4.144687057643714070e+02,9.484992027282714844e+00,-8.031646609306335449e-01,-1.223870038986206055e+00,3.480000000000000000e+02
4.934256855684652692e+02,4.499894685011749971e+02,5.217422487176299910e+02,5.588554590968051343e+02,4.166822534309176262e+02,4.140105904020456364e+02,1.414900947607471608e+03,4.503606865996007400e+02,9.484992027282714844e+00,-8.031646609306335449e-01,-1.223870038986206055e+00,3.490000000000000000e+02
3.623753445993861533e+02,6.104854751884668076e+02,5.973002504797550500e+02,5.570100701010233024e+02,4.750610970761590579e+02,5.500187726957592531e+02,1.223201386503118556e+03,5.827273593138088472e+02,9.484992027282714844e+00,-8.031646609306335449e-01,-1.223870038986206055e+00,3.500000000000000000e+02
2.955079767305142013e+02,6.225708938838542963e+02,6.601344385062620859e+02,6.111591856970626395e+02,5.261285513528164302e+02,5.918132997097927728e+02,1.135493841629766393e+03,6.283333462144582882e+02,9.484992027282714844e+00,-8.031646609306335449e-01,-1.223870038986206055e+00,3.510000000000000000e+02
3.861169519315080834e+02,4.660134941176002030e+02,6.225769403327358305e+02,6.473007745169015834e+02,4.982912273236433975e+02,4.834992731357306184e+02,1.263508742221660214e+03,5.246350060882032267e+02,9.484992027282714844e+00,-8.031646609306335449e-01,-1.223870038986206055e+00,3.520000000000000000e+02
5.102025882166708470e+02,3.539295525393572461e+02,5.366827002828467812e+02,6.155831980708535411e+02,4.288871035363081319e+02,3.743896783836535178e+02,1.421017636921736994e+03,4.153832359223742969e+02,9.484992027282714844e+00,-8.031646609306335449e-01,-1.223870038986206055e+00,3.530000000000000000e+02
4.974594282575999387e+02,4.396995533556837472e+02,5.219705638262603316e+02,5.599539348592879833e+02,4.128071548959051142e+02,4.138775302445428679e+02,1.381300817062103306e+03,4.510207205272163264e+02,9.484992027282714844e+00,-8.031646609306335449e-01,-1.223870038986206055e+00,3.540000000000000000e+02
3.662189282318577170e+02,6.042707609256067371e+02,5.989284070733228873e+02,5.577039547657186631e+02,4.718719286159866897e+02,5.470578856300708139e+02,1.190598576321164728e+03,5.815103183744868147e+02,9.484992027282714844e+00,-8.031646609306335449e-01,-1.223870038986206055e+00,3.550000000000000000e+02
2.988397510063514346e+02,6.200637561524563353e+02,6.598652665107874782e+02,6.116089272383396747e+02,5.244192509750901081e+02,5.902889569513754395e+02,1.103646168484992813e+03,6.266345525140386599e+02,9.484992027282714844e+00,-8.031646609306335449e-01,-1.223870038986206055e+00,3.560000000000000000e+02
3.905466740610863781e+02,4.664263621127356600e+02,6.187328082919302688e+02,6.452781642813279177e+02,4.976807852375422954e+02,4.840340583789839002e+02,1.231266360785564757e+03,5.251178468857942789e+02,9.484992027282714844e+00,-8.031646609306335449e-01,-1.223870038986206055e+00,3.570000000000000000e+02
5.176970157109608408e+02,3.581131481024604000e+02,5.314170702365117904e+02,6.093714201628754381e+02,4.285153009956338792e+02,3.753587924050261790e+02,1.387843744046753272e+03,4.185999892873187491e+02,9.484992027282714844e+00,-8.031646609306335449e-01,-1.223870038986206055e+00,3.580000000000000000e+02
5.080716187770158285e+02,4.464841434116096934e+02,5.183700537650438491e+02,5.506513907127373386e+02,4.124791597595685744e+02,4.146638830387564667e+02,1.348666848622320686e+03,4.555027813038068416e+02,9.484992027282714844e+00,-8.031646609306335449e-01,-1.223870038986206055e+00,3.590000000000000000e+02
3.786050782943202648e+02,6.091936944303670316e+02,5.973553273943762179e+02,5.475127957749573397e+02,4.709462672672379995e+02,5.472177327211174998e+02,1.160187895098177250e+03,5.858211108749928826e+02,9.484992027282714844e+00,-8.031646609306335449e-01,-1.223870038986206055e+00,3.600000000000000000e+02
3.118933959784189938e+02,6.206142864647736133e+02,6.588962381114470190e+02,6.020264092047073063e+02,5.211065595163090620e+02,5.891634717169727082e+02,1.075416006615909282e+03,6.298649400780996075e+02,9.484992027282714844e+00,-8.031646609306335449e-01,-1.223870038986206055e+00,3.610000000000000000e+02
4.035480916617816547e+02,4.652889112256416411e+02,6.179611438539504888e+02,6.379525862222071737e+02,4.914095121392529109e+02,4.826887884929637949e+02,1.202980052047350910e+03,5.265007421538248309e+02,9.484992027282714844e+00,-8.031646609306335449e-01,-1.223870038986206055e+00,3.620000000000000000e+02
5.309087386385799618e+02,3.588503503487263515e+02,5.311811414746625815e+02,6.059923285205950378e+02,4.215392723976547131e+02,3.756693189447250916e+02,1.360074905798275722e+03,4.180685569527922780e+02,9.484992027282714844e+00,-8.031646609306335449e-01,-1.223870038986206055e+00,3.630000000000000000e+02
5.236639549746469129e+02,4.489410987988267152e+02,5.182797531037213048e+02,5.505917751177039463e+02,4.074581099239439936e+02,4.164314155492756981e+02,1.321959069583172095e+03,4.541651022979312984e+02,9.484992027282714844e+00,-8.031646609306335449e-01,-1.223870038986206055e+00,3.640000000000000000e+02
3.994741679938742891e+02,6.114162517790755373e+02,5.970718657804536633e+02,5.479250097013282357e+02,4.683575192698335741e+02,5.489529967118724016e+02,1.133604309774353169e+03,5.849481953169706685e+02,9.484992027282714844e+00,-8.031646609306335449e-01,-1.223870038986206055e+00,3.650000000000000000e+02
3.380133321807516040e+02,6.223436457037641958e+02,6.588497022419178393e+02,6.013474214300877065e+02,5.202461880997216213e+02,5.905945943265469396e+02,1.047948206935907365e+03,6.295426558719154855e+02,9.484992027282714844e+00,-8.031646609306335449e-01,-1.223870038986206055e+00,3.660000000000000000e+02
4.307659956060379045e+02,4.669761359602744051e+02,6.178385796138827573e+02,6.372599952315649716e+02,4.921059875947248656e+02,4.842012928916446981e+02,1.176446467576635769e+03,5.258398587872652570e+02,9.484992027282714844e+00,-8.031646609306335449e-01,-1.223870038986206055e+00,3.670000000000000000e+02
5.540411248745222110e+02,3.597281537772396405e+02,5.296550513655674877e+02,6.064188766854931600e+02,4.235038219641501200e+02,3.770076766978017986e+02,1.334354796639207052e+03,4.166100093528584694e+02,9.484992027282714844e+00,-8.031646609306335449e-01,-1.223870038986206055e+00,3.680000000000000000e+02
5.406117368081177119e+02,4.489140210040459351e+02,5.154226526117272442e+02,5.515732565408688970e+02,4.093707434856914915e+02,4.173981268164498033e+02,1.295922848234331468e+03,4.522243912163066852e+02,9.484992027282714844e+00,-8.031646609306335449e-01,-1.223870038986206055e+00,3.690000000000000000e+02
4.118111058252980001e+02,6.131568166397628374e+02,5.950972344998444896e+02,5.484493620894718333e+02,4.688837607064560871e+02,5.493863251363000018e+02,1.107232270435575629e+03,5.823623862030799501e+02,9.484992027282714844e+00,-8.031646609306335449e-01,-1.223870038986206055e+00,3.700000000000000000e+02
3.488702944516844582e+02,6.288265289662958821e+02,6.596977316355987568e+02,6.009671830741644953e+02,5.192158386304217856e+02,5.894241731942165643e+02,1.022827582664234797e+03,6.254155861714862112e+02,9.484992027282714844e+00,-8.031646609306335449e-01,-1.223870038986206055e+00,3.710000000000000000e+02
4.424394172499451088e+02,4.775342312526408932e+02,6.216570627272667480e+02,6.355487130910332780e+02,4.902210710840518004e+02,4.810382320111530134e+02,1.152821339153277222e+03,5.205675333205290372e+02,9.484992027282714844e+00,-8.031646609306335449e-01,-1.223870038986206055e+00,3.720000000000000000e+02
5.664676522873342037e+02,3.700947872062206443e+02,5.352613378735404694e+02,6.031406758901575813e+02,4.217330848055207753e+02,3.742025057107675821e+02,1.310152232705353526e+03,4.128361315937145264e+02,9.484992027282714844e+00,-8.031646609306335449e-01,-1.223870038986206055e+00,3.730000000000000000e+02
5.517286953391158022e+02,4.548242630009626737e+02,5.205078385739543592e+02,5.475801150251791114e+02,4.090672221648565028e+02,4.177794670934017631e+02,1.270042370974188088e+03,4.521996565909284982e+02,9.484992027282714844e+00,-8.031646609306335449e-01,-1.223870038986206055e+00,3.740000000000000000e+02
4.200339036677032709e+02,6.132406435954471817e+02,5.971673565132296062e+02,5.447972451902460307e+02,4.716723621060009464e+02,5.526007904569632956e+02,1.081290114262941643e+03,5.854410051549930358e+02,9.484992027282714844e+00,-8.031646609306335449e-01,-1.223870038986206055e+00,3.750000000000000000e+02
3.550710564028413501e+02,6.245552674426762678e+02,6.586800112835990149e+02,5.970744978993825498e+02,5.257584441983635770e+02,5.927775151828245725e+02,9.983869333123147953e+02,6.296442251606131322e+02,9.484992027282714844e+00,-8.031646609306335449e-01,-1.223870038986206055e+00,3.760000000000000000e+02
4.489533852612948976e+02,4.712437222947155533e+02,6.201328127377273631e+02,6.297998943831335055e+02,4.988743109889037441e+02,4.828044438894721679e+02,1.129365160389774246e+03,5.251742502795095788e+02,9.484992027282714844e+00,-8.031646609306335449e-01,-1.223870038986206055e+00,3.770000000000000000e+02
5.751289815186901251e+02,3.635341001107262855e+02,5.349597657463673386e+02,5.953061401241866406e+02,4.291152682797182933e+02,3.739567367075214861e+02,1.287012671758420765e+03,4.173597914144411334e+02,9.484992027282714844e+00,-8.031646609306335449e-01,-1.223870038986206055e+00,3.780000000000000000e+02
5.637684728196472861e+02,4.492970682017185027e+02,5.206093752336091711e+02,5.390791656630754005e+02,4.127193692416331032e+02,4.148802549947213265e+02,1.248081424836287624e+03,4.550482491282964475e+02,9.484992027282714844e+00,-8.031646609306335449e-01,-1.223870038986206055e+00,3.790000000000000000e+02
4.362194461829785723e+02,6.097365712616883684e+02,5.965618699254264357e+02,5.368347982702689478e+02,4.720359427860748838e+02,5.467906343416470918e+02,1.061494644477119436e+03,5.856650637210987043e+02,9.484992027282714844e+00,-8.031646609306335449e-01,-1.223870038986206055e+00,3.800000000000000000e+02
3.743150470788386883e+02,6.231720231818617322e+02,6.572296440331701888e+02,5.902702445656541386e+02,5.250857335959663033e+02,5.855332435400196118e+02,9.805030584958294639e+02,6.286475712742467294e+02,9.484992027282714844e+00,-8.031646609306335449e-01,-1.223870038986206055e+00,3.810000000000000000e+02
4.681129901384265395e+02,4.717696974007703830e+02,6.174534863121079979e+02,6.250063893004989950e+02,4.987364421969832620e+02,4.761515749784375657e+02,1.112572950797533849e+03,5.246097816469846293e+02,9.484992027282714844e+00,-8.031646609306335449e-01,-1.223870038986206055e+00,3.820000000000000000e+02
5.921090310910803964e+02,3.664643018229835434e+02,5.306768259778400534e+02,5.924525724868944963e+02,4.297851436558412388e+02,3.685945208879711572e+02,1.270577832217299147e+03,4.168578707264678087e+02,9.484992027282714844e+00,-8.031646609306335449e-01,-1.223870038986206055e+00,3.830000000000000000e+02
5.791538305831054458e+02,4.540559090964961797e+02,5.158637786391773261e+02,5.359407116186339408e+02,4.141427911209175363e+02,4.110390015570592368e+02,1.231211307745921658e+03,4.538001165184687125e+02,9.484992027282714844e+00,-8.031646609306335449e-01,-1.223870038986206055e+00,3.840000000000000000e+02
4.507793577813426964e+02,6.128508037101346417e+02,5.930351076938750339e+02,5.315847234968168777e+02,4.736778548900620081e+02,5.458481387279753108e+02,1.043676738205744186e+03,5.843548621416703099e+02,9.484992027282714844e+00,-8.031646609306335449e-01,-1.223870038986206055e+00,3.850000000000000000e+02
3.872724824655306293e+02,6.218974003628827631e+02,6.551896452802393469e+02,5.842885866389115108e+02,5.250112264517520089e+02,5.885595528818448656e+02,9.617671780884265900e+02,6.279090254671536968e+02,9.484992027282714844e+00,-8.031646609306335449e-01,-1.223870038986206055e+00,3.860000000000000000e+02
4.795308369417907670e+02,4.682935168272160809e+02,6.164839011610674788e+02,6.204779999470483745e+02,4.948703901711051003e+02,4.815986778363658232e+02,1.092965656466840301e+03,5.233940340552508133e+02,9.484992027282714844e+00,-8.031646609306335449e-01,-1.223870038986206055e+00,3.870000000000000000e+02
6.047113197329308605e+02,3.641823693454280146e+02,5.310561227500729728e+02,5.888704050314117922e+02,4.226062586639309302e+02,3.735660296558853588e+02,1.250475873498304281e+03,4.141057494322594721e+02,9.484992027282714844e+00,-8.031646609306335449e-01,-1.223870038986206055e+00,3.880000000000000000e+02
5.949110107900341973e+02,4.520331506024886039e+02,5.174342204767890507e+02,5.319729314266951405e+02,4.065581835190969286e+02,4.141416963130250224e+02,1.209954350059881108e+03,4.501149781436324702e+02,9.484992027282714844e+00,-8.031646609306335449e-01,-1.223870038986206055e+00,3.890000000000000000e+02
4.697903963744465727e+02,6.083602440861577634e+02,5.934938285285461461e+02,5.276675731306604575e+02,4.671582155427167891e+02,5.462994855454162462e+02,1.023058053155255038e+03,5.801727186647040071e+02,9.484992027282714844e+00,-8.031646609306335449e-01,-1.223870038986206055e+00,3.900000000000000000e+02
4.071629720072814962e+02,6.159394927308603656e+02,6.516048786988321808e+02,5.805478668319119606e+02,5.187787366880074842e+02,5.854282776597756310e+02,9.412470096586039290e+02,6.227162067115204991e+02,9.484992027282714844e+00,-8.031646609306335449e-01,-1.223870038986206055e+00,3.910000000000000000e+02
4.974034902662970126e+02,4.629446961492067203e+02,6.081864383135398384e+02,6.150525165977524011e+02,4.890945004734676331e+02,4.759871469793142751e+02,1.070718916842335602e+03,5.177146774690700113e+02,9.484992027282714844e+00,-8.031646609306335449e-01,-1.223870038986206055e+00,3.920000000000000000e+02
6.183818927700340282e+02,3.594239924977155169e+02,5.207064515966558247e+02,5.820147438985659392e+02,4.195763284007480252e+02,3.695376000588439638e+02,1.226691417483991245e+03,4.102537815394025529e+02,9.484992027282714844e+00,-8.031646609306335449e-01,-1.223870038986206055e+00,3.930000000000000000e+02
