F3,F4,C3,C4,P3,P4,Cz,Pz,Accel_x,Accel_y,Accel_z,Sample
9.549694368615746498e-12,7.275957614183425903e-12,-7.730704965069890022e-12,-1.773514668457210064e-11,-5.456968210637569427e-12,1.045918907038867474e-11,4.547473508864641190e-12,2.046363078989088535e-12,9.484992027282714844e+00,-6.119350194931030273e-01,-1.032640218734741211e+00,0.000000000000000000e+00
-6.726544264617036788e+02,-2.146125087199304744e+02,-5.414262569372760936e+02,-5.455599148048809184e+02,-4.508974587132836405e+02,-3.147422460629620673e+02,-8.614599775172500813e+02,-4.270942590509866932e+02,9.484992027282714844e+00,-6.119350194931030273e-01,-1.032640218734741211e+00,1.000000000000000000e+00
-1.122849437884975941e+03,-4.608555608328813378e+02,-9.557585278330684559e+02,-9.284013886099082811e+02,-8.667638974768181015e+02,-6.341654147732865567e+02,-1.419310051902301893e+03,-7.400768878855303683e+02,9.484992027282714844e+00,-6.119350194931030273e-01,-1.032640218734741211e+00,2.000000000000000000e+00
-1.356606942428936691e+03,-7.462069707681096133e+02,-1.215117833776512953e+03,-1.099030825516651021e+03,-1.180086730381750840e+03,-9.306574166132518258e+02,-1.885837553817965272e+03,-9.600346278750009787e+02,9.484992027282714844e+00,-6.119350194931030273e-01,-1.032640218734741211e+00,3.000000000000000000e+00
-1.340122366789646094e+03,-1.124061535847899222e+03,-1.439289458650017650e+03,-1.169954052354810756e+03,-1.428950412280840283e+03,-1.256082991917090339e+03,-2.412344489394475204e+03,-1.235735665152941920e+03,9.484992027282714844e+00,-6.119350194931030273e-01,-1.032640218734741211e+00,4.000000000000000000e+00
-1.149393480656142856e+03,-1.579489592597628871e+03,-1.734274743539438305e+03,-1.283956604611825924e+03,-1.719601811974031989e+03,-1.657511092580435388e+03,-2.964558412587564362e+03,-1.611324305971770627e+03,9.484992027282714844e+00,-6.119350194931030273e-01,-1.032640218734741211e+00,5.000000000000000000e+00
-1.291591422577396770e+03,-1.879786514572484521e+03,-2.001579408604541641e+03,-1.437404581425014385e+03,-1.995944033619829497e+03,-1.968034064987012243e+03,-3.810013425047779492e+03,-1.886451385230826418e+03,9.484992027282714844e+00,-6.119350194931030273e-01,-1.032640218734741211e+00,6.000000000000000000e+00
-1.979329748099606604e+03,-1.870976955215921407e+03,-2.089270976269777293e+03,-1.532754916581810676e+03,-2.117537309385531898e+03,-2.014363742732568426e+03,-4.903511396983250961e+03,-1.900230789968248928e+03,9.484992027282714844e+00,-6.119350194931030273e-01,-1.032640218734741211e+00,7.000000000000000000e+00
-2.593903408432042852e+03,-1.812658936972078436e+03,-2.067181229873484881e+03,-1.549823209120203956e+03,-2.143178882665327365e+03,-1.970386621343640400e+03,-5.451907620244599457e+03,-1.827681242295950597e+03,9.484992027282714844e+00,-6.119350194931030273e-01,-1.032640218734741211e+00,8.000000000000000000e+00
-2.874228607217816716e+03,-2.009897449033613157e+03,-2.116013443537843159e+03,-1.531938894317369204e+03,-2.226593884614899252e+03,-2.108338561960589686e+03,-5.458860334558181421e+03,-1.925588367492554426e+03,9.484992027282714844e+00,-6.119350194931030273e-01,-1.032640218734741211e+00,9.000000000000000000e+00
-3.525790205057727690e+03,-2.302666431676461798e+03,-2.235404993345961429e+03,-1.494444397670954913e+03,-2.336251627556456697e+03,-2.338599695481148046e+03,-6.148859856968630993e+03,-2.131415025676018104e+03,9.484992027282714844e+00,-6.119350194931030273e-01,-1.032640218734741211e+00,1.000000000000000000e+01
-4.513481478566817714e+03,-2.380486538844199004e+03,-2.313546253439072188e+03,-1.482542100478434349e+03,-2.398835039122695434e+03,-2.425416373449063030e+03,-7.352259227310860297e+03,-2.220813684232467494e+03,9.484992027282714844e+00,-6.119350194931030273e-01,-1.032640218734741211e+00,1.100000000000000000e+01
-4.792063270174345234e+03,-2.289886199010391465e+03,-2.322533647025606115e+03,-1.537720290829821352e+03,-2.462635618802767567e+03,-2.387342821790814924e+03,-7.514665537937386034e+03,-2.163034386362718578e+03,9.484992027282714844e+00,-6.119350194931030273e-01,-1.032640218734741211e+00,1.200000000000000000e+01
-4.669841039119657580e+03,-2.226510530094077694e+03,-2.259954864405106491e+03,-1.538327433587429141e+03,-2.485319293176223255e+03,-2.330573966383377410e+03,-7.264070040607111878e+03,-2.064546583424244091e+03,9.484992027282714844e+00,-6.119350194931030273e-01,-1.032640218734741211e+00,1.300000000000000000e+01
-5.604553520935016422e+03,-2.226236175162212021e+03,-2.137460126651486917e+03,-1.363039767669649336e+03,-2.366281820680096644e+03,-2.268605618258989580e+03,-8.548155948126028306e+03,-2.003516677120412169e+03,9.484992027282714844e+00,-6.119350194931030273e-01,-1.032640218734741211e+00,1.400000000000000000e+01
-6.965160085346877167e+03,-2.341973519211147504e+03,-2.117296446875534457e+03,-1.212241103086444127e+03,-2.310474085942883448e+03,-2.330218247254065318e+03,-9.904637691074505710e+03,-2.075421703017106665e+03,9.484992027282714844e+00,-6.119350194931030273e-01,-1.032640218734741211e+00,1.500000000000000000e+01
-6.852541947256508138e+03,-2.565347857213223506e+03,-2.280039069799835943e+03,-1.312969068551911505e+03,-2.530488270012820067e+03,-2.574221789691136564e+03,-8.895353128537160956e+03,-2.253432436910210527e+03,9.484992027282714844e+00,-6.119350194931030273e-01,-1.032640218734741211e+00,1.600000000000000000e+01
-6.324085159857118015e+03,-2.507435849926395804e+03,-2.296257822983421192e+03,-1.386051812374900692e+03,-2.625509043322074831e+03,-2.577378796246884122e+03,-8.516200965967760567e+03,-2.205385319273578716e+03,9.484992027282714844e+00,-6.119350194931030273e-01,-1.032640218734741211e+00,1.700000000000000000e+01
-7.632841608979072589e+03,-1.998951539040328726e+03,-1.929697287877343115e+03,-1.084531003655803261e+03,-2.206444695196464181e+03,-2.083493989703926218e+03,-1.226569597230548789e+04,-1.800067727260607171e+03,9.484992027282714844e+00,-6.119350194931030273e-01,-1.032640218734741211e+00,1.800000000000000000e+01
-8.372497526506480426e+03,-1.896976927635114407e+03,-1.743974448477206579e+03,-8.523821170999131027e+02,-2.004546305031849670e+03,-1.930804912759904937e+03,-1.412078490639735537e+04,-1.671780692307913796e+03,9.484992027282714844e+00,-6.119350194931030273e-01,-1.032640218734741211e+00,1.900000000000000000e+01
-3.913737802761026614e+03,-3.104172002534860439e+03,-2.455668381080068684e+03,-1.440135484379934724e+03,-3.059472633005735588e+03,-3.096559009994975895e+03,-5.257175419794150002e+03,-2.476901849532179767e+03,9.484992027282714844e+00,-6.119350194931030273e-01,-1.032640218734741211e+00,2.000000000000000000e+01
4.193096485523645242e+03,-4.914882011783613962e+03,-3.673915319944544535e+03,-2.600275199202981639e+03,-4.877479660284418969e+03,-4.939642701584994029e+03,1.014119647358276961e+04,-3.715898326840423579e+03,9.446745872497558594e+00,-6.119350194931030273e-01,-1.070886254310607910e+00,2.100000000000000000e+01
9.201142521207329992e+03,-5.744315223545726440e+03,-4.277559933376165645e+03,-3.269468445861020882e+03,-5.869556789916373418e+03,-5.841191306186587099e+03,1.857740147567317399e+04,-4.262083800837149283e+03,9.446745872497558594e+00,-6.119350194931030273e-01,-1.070886254310607910e+00,2.200000000000000000e+01
8.799394572400467951e+03,-5.390342800851525681e+03,-4.011126607691608115e+03,-3.083370781730136969e+03,-5.616626961777070392e+03,-5.514228567630254474e+03,1.645861697891186486e+04,-3.966303708499665390e+03,9.446745872497558594e+00,-6.119350194931030273e-01,-1.070886254310607910e+00,2.300000000000000000e+01
7.044425910663193463e+03,-5.073232582084723617e+03,-3.677774405438189206e+03,-2.718236017601401272e+03,-5.206634010471352667e+03,-5.159545735651567156e+03,1.279205119288875721e+04,-3.700240435416276796e+03,9.446745872497558594e+00,-6.119350194931030273e-01,-1.070886254310607910e+00,2.400000000000000000e+01
6.803975873300027160e+03,-5.344473319190555230e+03,-3.760025184677853758e+03,-2.687093122364782630e+03,-5.325778223743800481e+03,-5.399097303430951797e+03,1.320149023768458756e+04,-3.879982457939133837e+03,9.446745872497558594e+00,-6.119350194931030273e-01,-1.070886254310607910e+00,2.500000000000000000e+01
6.811201463681935820e+03,-5.519423716427476393e+03,-3.883438456637733907e+03,-2.760064168060270731e+03,-5.505180199203488883e+03,-5.610588485719946220e+03,1.397747855781096041e+04,-4.022167749875000482e+03,9.446745872497558594e+00,-6.119350194931030273e-01,-1.070886254310607910e+00,2.600000000000000000e+01
6.125968018353911248e+03,-5.193923729212042417e+03,-3.715696354812970185e+03,-2.660806236011012516e+03,-5.339741839490553502e+03,-5.357999011960275311e+03,1.213921222345609203e+04,-3.793733920999400652e+03,9.446745872497558594e+00,-6.119350194931030273e-01,-1.070886254310607910e+00,2.700000000000000000e+01
5.769175783514043360e+03,-4.877754409000623127e+03,-3.476995546434153766e+03,-2.498764068907144065e+03,-5.123382864720755606e+03,-5.066989361397801076e+03,1.020755134624410312e+04,-3.521342972894416562e+03,9.446745872497558594e+00,-6.119350194931030273e-01,-1.070886254310607910e+00,2.800000000000000000e+01
5.910479959988527298e+03,-4.958508293461419271e+03,-3.413736511691664418e+03,-2.398341811752024114e+03,-5.110555793094516048e+03,-5.101918258267210149e+03,1.001943225616743257e+04,-3.517853460901692415e+03,9.446745872497558594e+00,-6.119350194931030273e-01,-1.070886254310607910e+00,2.900000000000000000e+01
5.637831362671140596e+03,-5.141728993426618217e+03,-3.439785310881782607e+03,-2.310234904609189016e+03,-5.138395184414614050e+03,-5.237267311138546575e+03,9.873169525524768687e+03,-3.634225024168357777e+03,9.446745872497558594e+00,-6.119350194931030273e-01,-1.070886254310607910e+00,3.000000000000000000e+01
5.099240891979398839e+03,-5.085330688131454735e+03,-3.407710952219038973e+03,-2.230686382270490867e+03,-5.079238728467697001e+03,-5.198422561142808263e+03,8.549762942531042427e+03,-3.617839796836842197e+03,9.446745872497558594e+00,-6.119350194931030273e-01,-1.070886254310607910e+00,3.100000000000000000e+01
5.053904174729086662e+03,-4.853450713964083661e+03,-3.302276758641642118e+03,-2.195748216657750163e+03,-5.000734420448819037e+03,-5.023775379857759617e+03,7.098688151570700029e+03,-3.448623025169104949e+03,9.446745872497558594e+00,-6.119350194931030273e-01,-1.070886254310607910e+00,3.200000000000000000e+01
5.271642395497647158e+03,-4.669357713668629003e+03,-3.156284972741403180e+03,-2.127541622423310855e+03,-4.915743151980877883e+03,-4.853915994284840053e+03,6.410326817398730782e+03,-3.260622367505735383e+03,9.446745872497558594e+00,-6.119350194931030273e-01,-1.070886254310607910e+00,3.300000000000000000e+01
5.223523955730761372e+03,-4.649902143559371325e+03,-3.032730781786174703e+03,-1.970725608776397621e+03,-4.807339557102013714e+03,-4.781394396171504013e+03,5.860620809223679316e+03,-3.185835767408972515e+03,9.446745872497558594e+00,-6.119350194931030273e-01,-1.070886254310607910e+00,3.400000000000000000e+01
5.143743860275958468e+03,-4.749474964496163921e+03,-3.007029910590545569e+03,-1.837268534890624778e+03,-4.755865437538373953e+03,-4.828795809183947313e+03,4.672016211987702263e+03,-3.242192578682118437e+03,9.446745872497558594e+00,-6.119350194931030273e-01,-1.070886254310607910e+00,3.500000000000000000e+01
5.310343271445895880e+03,-4.771541578481170291e+03,-3.027947520687705492e+03,-1.815457110538828147e+03,-4.774493666070058680e+03,-4.865076124723793328e+03,3.359677887948411808e+03,-3.273930251475361729e+03,9.446745872497558594e+00,-6.119350194931030273e-01,-1.070886254310607910e+00,3.600000000000000000e+01
5.423452764721540007e+03,-4.578547519731158900e+03,-2.946844522377320573e+03,-1.807343228668335541e+03,-4.728477670080686948e+03,-4.723889075185392358e+03,2.806086442040029851e+03,-3.125548697078787882e+03,9.446745872497558594e+00,-6.119350194931030273e-01,-1.070886254310607910e+00,3.700000000000000000e+01
5.254409190907887023e+03,-4.334255848872587194e+03,-2.757317990664517311e+03,-1.699880576708589615e+03,-4.573071359658490110e+03,-4.485223985900031948e+03,2.228297518453610337e+03,-2.891333859673668485e+03,9.446745872497558594e+00,-6.119350194931030273e-01,-1.070886254310607910e+00,3.800000000000000000e+01
5.067391325278240402e+03,-4.309319872434138233e+03,-2.624795837124619538e+03,-1.541038050866276990e+03,-4.446151669878665416e+03,-4.395704203405364751e+03,4.127871797467491888e+02,-2.805297517743126718e+03,9.446745872497558594e+00,-6.119350194931030273e-01,-1.070886254310607910e+00,3.900000000000000000e+01
5.179517864354511403e+03,-4.464078270199403960e+03,-2.628893519564872804e+03,-1.442784876237326216e+03,-4.433442597904504510e+03,-4.483472969667995130e+03,-1.153124435362501117e+03,-2.888349528590545560e+03,9.446745872497558594e+00,-6.119350194931030273e-01,-1.070886254310607910e+00,4.000000000000000000e+01
5.480407963125692731e+03,-4.492029479552364137e+03,-2.647000297053086797e+03,-1.420146428711951103e+03,-4.439961329768306314e+03,-4.510113932661746730e+03,-6.647742884777781001e+02,-2.913617089820789261e+03,9.446745872497558594e+00,-6.119350194931030273e-01,-1.070886254310607910e+00,4.100000000000000000e+01
5.466785053537802014e+03,-4.272288305778920403e+03,-2.546047376445497321e+03,-1.394207362036814402e+03,-4.354865186706221721e+03,-4.335188914942178599e+03,-9.034316069789551875e+02,-2.742911984821982060e+03,9.446745872497558594e+00,-6.119350194931030273e-01,-1.070886254310607910e+00,4.200000000000000000e+01
4.972331333536771126e+03,-4.032127916497814113e+03,-2.365602078378293299e+03,-1.300554855895196397e+03,-4.204636529557889844e+03,-4.110546053267040406e+03,-4.767008384999387090e+03,-2.517313281596128036e+03,9.446745872497558594e+00,-6.119350194931030273e-01,-1.070886254310607910e+00,4.300000000000000000e+01
4.836052447980687248e+03,-4.011459252401227786e+03,-2.248328298057977463e+03,-1.162539277237811120e+03,-4.096039465396196647e+03,-4.048720122878733946e+03,-6.803192354329209593e+03,-2.448211485361527593e+03,9.446745872497558594e+00,-6.119350194931030273e-01,-1.070886254310607910e+00,4.400000000000000000e+01
5.994267440077353967e+03,-4.138292242569887094e+03,-2.246143573627589831e+03,-1.062006029352095538e+03,-4.074307930118861350e+03,-4.134326114479706121e+03,9.183819760190831403e+02,-2.529370150749579352e+03,9.446745872497558594e+00,-6.119350194931030273e-01,-1.070886254310607910e+00,4.500000000000000000e+01
7.854653202005638377e+03,-4.141709531017972040e+03,-2.257516184672693271e+03,-1.035245372195417076e+03,-4.072767386923426329e+03,-4.158333122876190828e+03,1.476659399813753771e+04,-2.554279847937063096e+03,9.446745872497558594e+00,-7.266727685928344727e-01,-1.070886254310607910e+00,4.600000000000000000e+01
8.821099332758632954e+03,-3.922512592895119269e+03,-2.165237658166709480e+03,-1.020102235775785175e+03,-3.999552794284886204e+03,-4.001365406167484252e+03,2.256185371196018968e+04,-2.397664970255627850e+03,9.446745872497558594e+00,-7.266727685928344727e-01,-1.070886254310607910e+00,4.700000000000000000e+01
8.532814525398754995e+03,-3.685283055677119592e+03,-1.993456268665678181e+03,-9.369148769556773004e+02,-3.857945929975621311e+03,-3.789951376411179353e+03,2.083456682375529999e+04,-2.182985083033708634e+03,9.446745872497558594e+00,-7.266727685928344727e-01,-1.070886254310607910e+00,4.800000000000000000e+01
8.158125312852530442e+03,-3.658875906014470729e+03,-1.876534621653847807e+03,-8.007955521546609816e+02,-3.747006203188131622e+03,-3.725271403137178822e+03,1.750253651733987499e+04,-2.114266165874770195e+03,9.446745872497558594e+00,-7.266727685928344727e-01,-1.070886254310607910e+00,4.900000000000000000e+01
8.397809864201115488e+03,-3.781981888963318852e+03,-1.877372152866778379e+03,-7.039894120055782878e+02,-3.730882889339425219e+03,-3.811957964171916956e+03,1.755515529570851504e+04,-2.198742633469955763e+03,9.446745872497558594e+00,-7.266727685928344727e-01,-1.070886254310607910e+00,5.000000000000000000e+01
8.662890377639741928e+03,-3.780392957913697501e+03,-1.896283227621821879e+03,-6.835258192291407795e+02,-3.743203795119175084e+03,-3.845744283315103075e+03,1.775106722093902499e+04,-2.233713355882367523e+03,9.446745872497558594e+00,-7.266727685928344727e-01,-1.070886254310607910e+00,5.100000000000000000e+01
8.476548392615904959e+03,-3.551727524830803759e+03,-1.809577184360093725e+03,-6.719578656331595994e+02,-3.680986649130917158e+03,-3.697609136927928375e+03,1.595246871291485513e+04,-2.088446771064226596e+03,9.446745872497558594e+00,-7.266727685928344727e-01,-1.070886254310607910e+00,5.200000000000000000e+01
8.214685707117561833e+03,-3.307899601650407021e+03,-1.638938859392707855e+03,-5.905623088300328618e+02,-3.545820988716874126e+03,-3.490645229449730323e+03,1.469505934546335811e+04,-1.883073895824757528e+03,9.446745872497558594e+00,-7.266727685928344727e-01,-1.070886254310607910e+00,5.300000000000000000e+01
8.248509932116379787e+03,-3.281527075962359049e+03,-1.522018116852271305e+03,-4.582744556352311065e+02,-3.440799158574714966e+03,-3.429625238280125359e+03,1.477443891096413790e+04,-1.821617217505469398e+03,9.446745872497558594e+00,-7.266727685928344727e-01,-1.070886254310607910e+00,5.400000000000000000e+01
8.401670260053875609e+03,-3.406820028988089689e+03,-1.523549008504939138e+03,-3.652532031243390520e+02,-3.427280111611185930e+03,-3.517157573086251432e+03,1.394765776085129073e+04,-1.910142094375680699e+03,9.446745872497558594e+00,-7.266727685928344727e-01,-1.070886254310607910e+00,5.500000000000000000e+01
8.424290944643980765e+03,-3.414664635203837406e+03,-1.546024514502269540e+03,-3.476670675100967856e+02,-3.439791145728479933e+03,-3.548544161277379317e+03,1.215562549442057207e+04,-1.947993864583071172e+03,9.446745872497558594e+00,-7.266727685928344727e-01,-1.070886254310607910e+00,5.600000000000000000e+01
8.322234960246278206e+03,-3.203512278687710477e+03,-1.464305180410211960e+03,-3.378759450034822294e+02,-3.376711060116710541e+03,-3.393770367410882500e+03,1.138230829440002162e+04,-1.803857119397731367e+03,9.446745872497558594e+00,-7.266727685928344727e-01,-1.070886254310607910e+00,5.700000000000000000e+01
8.189528990074696594e+03,-2.974870320923126201e+03,-1.299433118395776319e+03,-2.591743857502592618e+02,-3.240532080680246509e+03,-3.177175436792316304e+03,1.126266635616535496e+04,-1.596766435134630228e+03,9.446745872497558594e+00,-7.266727685928344727e-01,-1.070886254310607910e+00,5.800000000000000000e+01
8.119417014638184810e+03,-2.953746654581050279e+03,-1.190212582809928563e+03,-1.328496044763210193e+02,-3.133496583528736664e+03,-3.105716093615683803e+03,1.014136756271874219e+04,-1.532038440596196779e+03,9.446745872497558594e+00,-7.266727685928344727e-01,-1.070886254310607910e+00,5.900000000000000000e+01
8.182367453040876171e+03,-3.080893095505100973e+03,-1.200665804823534017e+03,-4.831629094998697838e+01,-3.115590122709843399e+03,-3.183473728357652362e+03,8.697075166579958022e+03,-1.617289932760708325e+03,9.446745872497558594e+00,-7.266727685928344727e-01,-1.070886254310607910e+00,6.000000000000000000e+01
8.274846073670945771e+03,-3.095831296501598445e+03,-1.231269934304021263e+03,-3.862123919918849424e+01,-3.122236058285611307e+03,-3.207616697954127631e+03,8.295784615273500094e+03,-1.651381943285330181e+03,9.446745872497558594e+00,-7.266727685928344727e-01,-1.070886254310607910e+00,6.100000000000000000e+01
8.199732905532546283e+03,-2.893941598850148239e+03,-1.157313685109329299e+03,-3.512668841556569532e+01,-3.054752574470473974e+03,-3.050072135789117510e+03,8.160238626440499502e+03,-1.502708595548968788e+03,9.446745872497558594e+00,-7.266727685928344727e-01,-1.070886254310607910e+00,6.200000000000000000e+01
7.990383208562626351e+03,-2.669046686751004927e+03,-1.000903590903157692e+03,3.664752972393489472e+01,-2.917146336384406368e+03,-2.834787880732124904e+03,7.336638914394297899e+03,-1.291839133037844931e+03,9.446745872497558594e+00,-7.266727685928344727e-01,-1.070886254310607910e+00,6.300000000000000000e+01
7.896062321925514880e+03,-2.646157568187726156e+03,-8.983758426807000887e+02,1.539643894558271313e+02,-2.810215283959325916e+03,-2.766285860411982412e+03,6.526596829286525463e+03,-1.224959861734280594e+03,9.446745872497558594e+00,-7.266727685928344727e-01,-1.070886254310607910e+00,6.400000000000000000e+01
7.994291263689813604e+03,-2.770753703896889874e+03,-9.104317857906389690e+02,2.287801964834166029e+02,-2.792158001600239913e+03,-2.847057740659524825e+03,5.900932361501684682e+03,-1.309027793480440778e+03,9.446745872497558594e+00,-7.266727685928344727e-01,-1.070886254310607910e+00,6.500000000000000000e+01
8.073830091429405002e+03,-2.783444580986837536e+03,-9.385859698141912304e+02,2.293881921095248799e+02,-2.798653805699595978e+03,-2.874530959512658683e+03,4.676020727432262902e+03,-1.343601909574864067e+03,9.446745872497558594e+00,-7.266727685928344727e-01,-1.070886254310607910e+00,6.600000000000000000e+01
7.959071320411966553e+03,-2.578448798257466478e+03,-8.616142159544333481e+02,2.239302106501577327e+02,-2.731810953421579597e+03,-2.721601728442502463e+03,3.761080469564964005e+03,-1.199079850629158045e+03,9.446745872497558594e+00,-7.266727685928344727e-01,-1.070886254310607910e+00,6.700000000000000000e+01
7.751229511965040729e+03,-2.350719323126122163e+03,-7.026292712981498880e+02,2.867566705334629660e+02,-2.594839637809527630e+03,-2.513044499492048999e+03,4.334906813176704418e+03,-9.954855976978615217e+02,9.446745872497558594e+00,-7.266727685928344727e-01,-1.070886254310607910e+00,6.800000000000000000e+01
7.666960507339231299e+03,-2.326679376642649913e+03,-5.973244615409894323e+02,3.968564362742949925e+02,-2.487641195951150621e+03,-2.453603623957979380e+03,4.110536963914770240e+03,-9.361297077902186174e+02,9.446745872497558594e+00,-7.266727685928344727e-01,-1.070886254310607910e+00,6.900000000000000000e+01
7.744514309652279735e+03,-2.450861677582942775e+03,-6.075558089196956644e+02,4.680053319721455409e+02,-2.469842315751618571e+03,-2.544976724240604653e+03,9.909755964882433545e+02,-1.027295384398744318e+03,9.446745872497558594e+00,-7.266727685928344727e-01,-1.070886254310607910e+00,7.000000000000000000e+01
7.804391218649514485e+03,-2.463143628703980085e+03,-6.370741310936764421e+02,4.683608169072485907e+02,-2.479519234859013068e+03,-2.583146050117463346e+03,-5.762992346607534273e+02,-1.070333510836375353e+03,9.446745872497558594e+00,-7.266727685928344727e-01,-1.070886254310607910e+00,7.100000000000000000e+01
7.693953986678174260e+03,-2.258687159000440715e+03,-5.655199315005388598e+02,4.638052294737171906e+02,-2.419329696501401941e+03,-2.439199310357782451e+03,5.376017540309815558e+03,-9.355588682332690951e+02,9.446745872497558594e+00,-7.266727685928344727e-01,-1.070886254310607910e+00,7.200000000000000000e+01
7.492070314028286703e+03,-2.032104101022199757e+03,-4.152868057197579219e+02,5.258657739489012783e+02,-2.291394323573708334e+03,-2.235340152556624162e+03,1.567026315478175638e+04,-7.403501126468258917e+02,9.484992027282714844e+00,-5.354431271553039551e-01,-1.109132170677185059e+00,7.300000000000000000e+01
7.403539024270953632e+03,-2.008146146365321783e+03,-3.199343904990059855e+02,6.324450441043518367e+02,-2.194113623977070347e+03,-2.174358101646243085e+03,2.095182139209776506e+04,-6.865528967484356144e+02,9.484992027282714844e+00,-5.354431271553039551e-01,-1.109132170677185059e+00,7.400000000000000000e+01
7.480808636443074647e+03,-2.132888803237344746e+03,-3.378737982807010667e+02,6.981822931843530569e+02,-2.184607796979472369e+03,-2.260075630537932284e+03,1.897379423705592853e+04,-7.816007115393317690e+02,9.484992027282714844e+00,-5.354431271553039551e-01,-1.109132170677185059e+00,7.500000000000000000e+01
7.544896773802424832e+03,-2.150626809051427244e+03,-3.707265311349769945e+02,6.916458589445755933e+02,-2.198386246834987105e+03,-2.294507659570543183e+03,1.618445567047339864e+04,-8.285200041289649562e+02,9.484992027282714844e+00,-5.354431271553039551e-01,-1.109132170677185059e+00,7.600000000000000000e+01
7.435786906275963702e+03,-1.956832625374147028e+03,-2.998994906779780649e+02,6.785798562125792159e+02,-2.138902745794937800e+03,-2.152394158603581673e+03,1.659611012478283010e+04,-6.981717158301698873e+02,9.484992027282714844e+00,-5.354431271553039551e-01,-1.109132170677185059e+00,7.700000000000000000e+01
7.233064270805081833e+03,-1.740473400684340049e+03,-1.512408963388120355e+02,7.327955094936687601e+02,-2.012119660423857113e+03,-1.952948383563335938e+03,1.748172840648549391e+04,-5.070579482116925192e+02,9.484992027282714844e+00,-5.354431271553039551e-01,-1.109132170677185059e+00,7.800000000000000000e+01
7.146183563275109918e+03,-1.721769645987914373e+03,-5.961980502575579521e+01,8.358548344615992391e+02,-1.918409976101322172e+03,-1.894150785636934415e+03,1.646213074643118307e+04,-4.553560453561422037e+02,9.484992027282714844e+00,-5.354431271553039551e-01,-1.109132170677185059e+00,7.900000000000000000e+01
7.225240062159018635e+03,-1.847777572313928431e+03,-8.334778740832734911e+01,9.021322607566985425e+02,-1.913836416164876027e+03,-1.979943721366517821e+03,1.509444911886589216e+04,-5.503974623603671716e+02,9.484992027282714844e+00,-5.354431271553039551e-01,-1.109132170677185059e+00,8.000000000000000000e+01
7.291176934649546638e+03,-1.865344022799363756e+03,-1.249137978531698536e+02,8.963846454873282710e+02,-1.933613985381808561e+03,-2.015397762215767671e+03,1.471087795054332128e+04,-5.978845030264092202e+02,9.484992027282714844e+00,-5.354431271553039551e-01,-1.109132170677185059e+00,8.100000000000000000e+01
7.182469526100847361e+03,-1.670702128180618274e+03,-6.534956626893836074e+01,8.831589810322930134e+02,-1.881913028142364510e+03,-1.875061806300306671e+03,1.449044568080335739e+04,-4.707763686593020793e+02,9.484992027282714844e+00,-5.354431271553039551e-01,-1.109132170677185059e+00,8.200000000000000000e+01
6.978058715931430015e+03,-1.453563358331572999e+03,7.371531293169755372e+01,9.381223208333258299e+02,-1.762873446659545152e+03,-1.675694606487024885e+03,1.399241578252040381e+04,-2.837752834428165443e+02,9.484992027282714844e+00,-5.354431271553039551e-01,-1.109132170677185059e+00,8.300000000000000000e+01
6.887831808075204208e+03,-1.435986016345185362e+03,1.608828454571485054e+02,1.042445859631657186e+03,-1.673689832578446840e+03,-1.615660887739607460e+03,1.362868982130531549e+04,-2.341759124559698648e+02,9.484992027282714844e+00,-5.354431271553039551e-01,-1.109132170677185059e+00,8.400000000000000000e+01
6.962149229093655777e+03,-1.566625761624207371e+03,1.348826234283956182e+02,1.108163021851026315e+03,-1.670355965345765071e+03,-1.700958433351042913e+03,1.307545134043091639e+04,-3.297457071819885641e+02,9.484992027282714844e+00,-5.354431271553039551e-01,-1.109132170677185059e+00,8.500000000000000000e+01
7.023295698739950240e+03,-1.593165277411204897e+03,8.806007876550529545e+01,1.100072923692714085e+03,-1.690191569242054356e+03,-1.736446986063940585e+03,1.201402053702811463e+04,-3.785518769882396555e+02,9.484992027282714844e+00,-5.354431271553039551e-01,-1.109132170677185059e+00,8.600000000000000000e+01
6.912366306040745258e+03,-1.410910360493775443e+03,1.400104453001449656e+02,1.083490990148127821e+03,-1.637668232889232058e+03,-1.596112949626027330e+03,1.132098498317984377e+04,-2.538374056353331980e+02,9.484992027282714844e+00,-5.354431271553039551e-01,-1.109132170677185059e+00,8.700000000000000000e+01
6.708142154888742880e+03,-1.205127695588506413e+03,2.732689824931558178e+02,1.132211835120096111e+03,-1.516262454962339689e+03,-1.398268602408765219e+03,1.146073747296110378e+04,-6.872588951634998011e+01,9.484992027282714844e+00,-5.354431271553039551e-01,-1.109132170677185059e+00,8.800000000000000000e+01
6.616561726533176625e+03,-1.193014730892349689e+03,3.565001340347125733e+02,1.226523730619527669e+03,-1.424243440308226582e+03,-1.341558381985073993e+03,1.129463648569378893e+04,-1.990614722550390070e+01,9.484992027282714844e+00,-5.354431271553039551e-01,-1.109132170677185059e+00,8.900000000000000000e+01
6.686260644651236362e+03,-1.324070085193868181e+03,3.262624433480978041e+02,1.281816727137976159e+03,-1.419151103408550625e+03,-1.429843372915751843e+03,1.012076349222513090e+04,-1.161907614136296161e+02,9.484992027282714844e+00,-5.354431271553039551e-01,-1.109132170677185059e+00,9.000000000000000000e+01
6.742916333567354741e+03,-1.351625816009719529e+03,2.768753543444959178e+02,1.265716348419624410e+03,-1.438791411089769099e+03,-1.468363284520763045e+03,9.048011717513832991e+03,-1.671914233572417743e+02,9.484992027282714844e+00,-5.354431271553039551e-01,-1.109132170677185059e+00,9.100000000000000000e+01
6.630147704108263497e+03,-1.174429613450191937e+03,3.304335460468869314e+02,1.242475849439979356e+03,-1.388072793087152149e+03,-1.333583175345662312e+03,8.922070466088138346e+03,-4.678991860696896765e+01,9.484992027282714844e+00,-5.354431271553039551e-01,-1.109132170677185059e+00,9.200000000000000000e+01
6.424354339404486382e+03,-9.765380579980269431e+02,4.660065883240627045e+02,1.285199978867057325e+03,-1.269902409998202074e+03,-1.141781530515806480e+03,8.868645906523575832e+03,1.334984100335952917e+02,9.484992027282714844e+00,-5.354431271553039551e-01,-1.109132170677185059e+00,9.300000000000000000e+01
6.329159737120496175e+03,-9.722692189903491453e+02,5.480943935620357479e+02,1.375601065938416468e+03,-1.179291989215192643e+03,-1.087277905929991903e+03,8.150140445346451088e+03,1.797565001696953004e+02,9.484992027282714844e+00,-5.354431271553039551e-01,-1.109132170677185059e+00,9.400000000000000000e+01
6.395102309347169466e+03,-1.108341044885346491e+03,5.156971525023282084e+02,1.428220155298759892e+03,-1.171697364019272754e+03,-1.176347923935661129e+03,7.360378688269534905e+03,8.324601888671259076e+01,9.484992027282714844e+00,-5.354431271553039551e-01,-1.109132170677185059e+00,9.500000000000000000e+01
6.450266065955291197e+03,-1.136319175091399302e+03,4.665780815575644738e+02,1.407754330468884291e+03,-1.188172959278334474e+03,-1.220683331256433576e+03,6.798163798608698926e+03,3.093533038602390661e+01,9.484992027282714844e+00,-5.354431271553039551e-01,-1.109132170677185059e+00,9.600000000000000000e+01
6.337559976285793709e+03,-9.558991049255671442e+02,5.203050924862136526e+02,1.378807528998874659e+03,-1.137560005106605786e+03,-1.096258995751015846e+03,6.015493520043055469e+03,1.467767178607473397e+02,9.484992027282714844e+00,-5.354431271553039551e-01,-1.109132170677185059e+00,9.700000000000000000e+01
6.131782408553061941e+03,-7.538185141088606542e+02,6.533953485184729288e+02,1.417270862572058832e+03,-1.021387630902730962e+03,-9.133138015134595662e+02,5.495635073489298520e+03,3.211658183544632266e+02,9.484992027282714844e+00,-5.354431271553039551e-01,-1.109132170677185059e+00,9.800000000000000000e+01
6.036346004547231132e+03,-7.463005068658071650e+02,7.334812753430142038e+02,1.504572395383011099e+03,-9.320014691293672513e+02,-8.648275053724210011e+02,5.817083489636610466e+03,3.623128680624495246e+02,9.484992027282714844e+00,-5.354431271553039551e-01,-1.109132170677185059e+00,9.900000000000000000e+01
6.102053651990524486e+03,-8.818291700089807819e+02,7.013366182183744968e+02,1.553147365640172211e+03,-9.267948841597212777e+02,-9.599389022671348357e+02,5.394908261985268837e+03,2.603567954847853798e+02,9.484992027282714844e+00,-5.354431271553039551e-01,-1.109132170677185059e+00,1.000000000000000000e+02
6.157444440786513951e+03,-9.136024433705417778e+02,6.504058568956215822e+02,1.528690386949786443e+03,-9.493079577554372008e+02,-1.009782929739481006e+03,3.035536623443269491e+03,2.007924935022442696e+02,9.484992027282714844e+00,-5.354431271553039551e-01,-1.109132170677185059e+00,1.010000000000000000e+02
6.046464749036648755e+03,-7.389420150320793255e+02,6.982485535676960353e+02,1.497975575753535850e+03,-9.059481765442742471e+02,-8.877040183132021411e+02,2.061460852419015282e+03,3.093052589132898902e+02,9.484992027282714844e+00,-5.354431271553039551e-01,-1.109132170677185059e+00,1.020000000000000000e+02
5.843871864454578827e+03,-5.391582399848521163e+02,8.264126622085677809e+02,1.535720222262886637e+03,-7.952299360132637958e+02,-7.045969771253862746e+02,6.498041950500029998e+03,4.791711245252317894e+02,9.484992027282714844e+00,-5.354431271553039551e-01,-1.109132170677185059e+00,1.030000000000000000e+02
5.751287661923468477e+03,-5.301264572397146821e+02,9.057702904855887027e+02,1.621259791388010854e+03,-7.111822625386707841e+02,-6.550391036339747188e+02,1.380992806473015662e+04,5.187489366000991140e+02,9.370253562927246094e+00,-6.119350194931030273e-01,-1.147378087043762207e+00,1.040000000000000000e+02
5.818510492975009583e+03,-6.662177403299926937e+02,8.730275637357262895e+02,1.668171594910630120e+03,-7.135573030046343774e+02,-7.476773539180853732e+02,1.736940148174329079e+04,4.159260615104926728e+02,9.370253562927246094e+00,-6.119350194931030273e-01,-1.147378087043762207e+00,1.050000000000000000e+02
5.874635961901019982e+03,-7.031050755775579546e+02,8.174885936191449218e+02,1.643692636907298947e+03,-7.441251916017390613e+02,-7.946593265749802413e+02,1.584985388885978864e+04,3.547717867827286682e+02,9.370253562927246094e+00,-6.119350194931030273e-01,-1.147378087043762207e+00,1.060000000000000000e+02
5.762989036412904170e+03,-5.336494508578334717e+02,8.577524592583395133e+02,1.612332002986196130e+03,-7.066251199863745569e+02,-6.727894854548630974e+02,1.400529814032246395e+04,4.616352302157265513e+02,9.370253562927246094e+00,-6.119350194931030273e-01,-1.147378087043762207e+00,1.070000000000000000e+02
5.556391995733022668e+03,-3.359721522974271011e+02,9.772513067348545519e+02,1.645786501215492535e+03,-5.997977254403131155e+02,-4.932695999800864683e+02,1.444216952785832837e+04,6.309771108990985340e+02,9.370253562927246094e+00,-6.119350194931030273e-01,-1.147378087043762207e+00,1.080000000000000000e+02
5.456683007321478726e+03,-3.281994976962134842e+02,1.047057444095553365e+03,1.724857133491612331e+03,-5.186704580153989355e+02,-4.469200538380887338e+02,1.482356656111731900e+04,6.712257828146271095e+02,9.370253562927246094e+00,-6.119350194931030273e-01,-1.147378087043762207e+00,1.090000000000000000e+02
5.516497894007346076e+03,-4.669790678414019567e+02,1.005660381850167141e+03,1.767320549233038037e+03,-5.229537874538827964e+02,-5.405529557954930624e+02,1.343327902200665267e+04,5.693462114622047920e+02,9.370253562927246094e+00,-6.119350194931030273e-01,-1.147378087043762207e+00,1.100000000000000000e+02
5.567249320726735277e+03,-5.075658967274496263e+02,9.452214473444728355e+02,1.741403664728120930e+03,-5.552639228547668608e+02,-5.882886239400970680e+02,1.196659526629188622e+04,5.083847797203575283e+02,9.370253562927246094e+00,-6.119350194931030273e-01,-1.147378087043762207e+00,1.110000000000000000e+02
5.453120417347881812e+03,-3.423749382495334430e+02,9.838668188589672354e+02,1.708470833775122628e+03,-5.210916763600264403e+02,-4.687879418989612077e+02,1.191036494149763530e+04,6.138396293058140145e+02,9.370253562927246094e+00,-6.119350194931030273e-01,-1.147378087043762207e+00,1.120000000000000000e+02
5.247438199635933415e+03,-1.485644513985521371e+02,1.102312357430255361e+03,1.737796917297210712e+03,-4.192017107999777181e+02,-2.934279624986731960e+02,1.218870604415311755e+04,7.795290693446117984e+02,9.370253562927246094e+00,-6.119350194931030273e-01,-1.147378087043762207e+00,1.130000000000000000e+02
5.151529569745553999e+03,-1.415388100385398502e+02,1.171247120822518809e+03,1.811477985197129783e+03,-3.429929482251293393e+02,-2.527770346446286567e+02,1.146909489995459808e+04,8.139481237053396399e+02,9.370253562927246094e+00,-6.119350194931030273e-01,-1.147378087043762207e+00,1.140000000000000000e+02
5.216114083349472821e+03,-2.778923311499750071e+02,1.129717763444764387e+03,1.849599570397508614e+03,-3.511756853058632259e+02,-3.527183080575100576e+02,1.024143488954379427e+04,7.047858361314138165e+02,9.370253562927246094e+00,-6.119350194931030273e-01,-1.147378087043762207e+00,1.150000000000000000e+02
5.271342447280308079e+03,-3.177703843412523383e+02,1.067377154288448764e+03,1.820288504364360051e+03,-3.861277079647491064e+02,-4.058611075819601410e+02,9.589887817173252188e+03,6.355871774768502291e+02,9.370253562927246094e+00,-6.119350194931030273e-01,-1.147378087043762207e+00,1.160000000000000000e+02
5.161299987342001259e+03,-1.568789881553029772e+02,1.099949648311359852e+03,1.783655116853251457e+03,-3.530196511171075144e+02,-2.906192784356312586e+02,9.410608401096769740e+03,7.322465973962544012e+02,9.370253562927246094e+00,-6.119350194931030273e-01,-1.147378087043762207e+00,1.170000000000000000e+02
4.958251111056515583e+03,3.008576862158315635e+01,1.211582171151251714e+03,1.809600868324922885e+03,-2.507079707828008850e+02,-1.191665613107652462e+02,8.952271852420668438e+03,8.900467968668181129e+02,9.370253562927246094e+00,-6.119350194931030273e-01,-1.147378087043762207e+00,1.180000000000000000e+02
4.862029292825562152e+03,3.010811277970196898e+01,1.278757222632946650e+03,1.881668875755162844e+03,-1.729825853454437947e+02,-8.223342243408865215e+01,8.300029193025509812e+03,9.193414550025640892e+02,9.370253562927246094e+00,-6.119350194931030273e-01,-1.147378087043762207e+00,1.190000000000000000e+02
4.924688184436457959e+03,-1.148176331749625660e+02,1.240143034846108094e+03,1.918897188427303263e+03,-1.784994916735208790e+02,-1.862801250570446427e+02,7.911612929098559107e+03,8.076999668774305974e+02,9.370253562927246094e+00,-6.119350194931030273e-01,-1.147378087043762207e+00,1.200000000000000000e+02
4.979957040703533494e+03,-1.643702176714566576e+02,1.179551237643325294e+03,1.887043643068653182e+03,-2.105484566558395727e+02,-2.455980580229875159e+02,7.218787399570923299e+03,7.364722193009647526e+02,9.370253562927246094e+00,-6.119350194931030273e-01,-1.147378087043762207e+00,1.210000000000000000e+02
4.873321903750214915e+03,-9.267444268681174435e+00,1.210025229747405319e+03,1.847010677658277928e+03,-1.772759788785872388e+02,-1.377509668130524005e+02,5.773838355181826046e+03,8.299712618995781668e+02,9.370253562927246094e+00,-6.119350194931030273e-01,-1.147378087043762207e+00,1.220000000000000000e+02
4.675044886724388562e+03,1.781278701672520128e+02,1.318162137920684472e+03,1.872157051069353656e+03,-7.921994540535661145e+01,3.001419256103531552e+01,5.393510378922925156e+03,9.840952426599033060e+02,9.370253562927246094e+00,-6.119350194931030273e-01,-1.147378087043762207e+00,1.230000000000000000e+02
4.582718206348609783e+03,1.805627241375241283e+02,1.381798654358740350e+03,1.946329182520841641e+03,-7.467059535263160797e+00,7.018449861088356556e+01,8.157720518962469214e+03,1.010939723383273758e+03,9.370253562927246094e+00,-6.119350194931030273e-01,-1.147378087043762207e+00,1.240000000000000000e+02
4.648015669713428906e+03,3.586064642625228771e+01,1.338126774305010258e+03,1.984381848850559436e+03,-1.702223871314299686e+01,-2.690479428992262001e+01,1.247497711647834876e+04,8.992649507451014870e+02,9.446745872497558594e+00,-6.501809358596801758e-01,-1.070886254310607910e+00,1.250000000000000000e+02
4.705208583531027216e+03,-1.531770814003539272e+01,1.271348922421806492e+03,1.949289585081553014e+03,-5.138560537856074006e+01,-8.115928193550143988e+01,1.456583365022861108e+04,8.301187447856364088e+02,9.446745872497558594e+00,-6.501809358596801758e-01,-1.070886254310607910e+00,1.260000000000000000e+02
4.599907215288953921e+03,1.364251960470817266e+02,1.297047929342466887e+03,1.903587894549364137e+03,-2.096089964004795547e+01,2.756940655574317134e+01,1.378181265948155851e+04,9.262569122215918469e+02,9.446745872497558594e+00,-6.501809358596801758e-01,-1.070886254310607910e+00,1.270000000000000000e+02
4.401876028120280353e+03,3.167136007218057330e+02,1.401669181983715134e+03,1.922267628010691624e+03,7.372222393238826044e+01,1.925537979682060268e+02,1.277710200508199705e+04,1.082461867253593027e+03,9.446745872497558594e+00,-6.501809358596801758e-01,-1.070886254310607910e+00,1.280000000000000000e+02
4.308259092038162635e+03,3.099923768785886296e+02,1.460737036810042810e+03,1.988399797485159070e+03,1.428730933634660687e+02,2.270418678776459274e+02,1.271412097854668173e+04,1.111229732759825310e+03,9.446745872497558594e+00,-6.501809358596801758e-01,-1.070886254310607910e+00,1.290000000000000000e+02
4.371151634162566552e+03,1.598953258860383357e+02,1.412148673380693253e+03,2.017871227871295559e+03,1.307656570901554005e+02,1.228785666038061208e+02,1.223729984147860705e+04,1.001632304763700631e+03,9.446745872497558594e+00,-6.501809358596801758e-01,-1.070886254310607910e+00,1.300000000000000000e+02
4.425878530476354172e+03,1.087142309907915205e+02,1.342875248580381594e+03,1.977599633562294912e+03,9.210558878992969767e+01,6.262818895613872883e+01,1.096019861492317614e+04,9.334650587130872736e+02,9.446745872497558594e+00,-6.501809358596801758e-01,-1.070886254310607910e+00,1.310000000000000000e+02
4.318586631354938618e+03,2.617850252651492156e+02,1.367968479768275756e+03,1.930965557364286724e+03,1.165106149060727603e+02,1.676408050702209493e+02,1.023449473166371899e+04,1.028645045293421390e+03,9.446745872497558594e+00,-6.501809358596801758e-01,-1.070886254310607910e+00,1.320000000000000000e+02
4.118853024098722926e+03,4.432093476285651832e+02,1.471299877248078701e+03,1.949042114445081097e+03,2.051040875114470055e+02,3.305301093399175443e+02,1.041358600382369696e+04,1.183466855052737628e+03,9.446745872497558594e+00,-6.501809358596801758e-01,-1.070886254310607910e+00,1.330000000000000000e+02
4.023884788434465008e+03,4.395683340133034562e+02,1.529059921827407379e+03,2.013110200127544886e+03,2.695875602592727773e+02,3.637057168496050963e+02,1.022691043934735717e+04,1.211768677688170101e+03,9.446745872497558594e+00,-6.501809358596801758e-01,-1.070886254310607910e+00,1.340000000000000000e+02
4.086549198784562577e+03,2.922907696106738058e+02,1.481351194234782270e+03,2.042000499367924931e+03,2.551047290294836785e+02,2.581159640379889879e+02,9.080375926474553125e+03,1.100693692582036419e+03,9.446745872497558594e+00,-6.501809358596801758e-01,-1.070886254310607910e+00,1.350000000000000000e+02
4.143063619819741689e+03,2.379668567784906372e+02,1.413452309020050052e+03,2.003701495652778249e+03,2.162930569743257365e+02,1.949108375249650180e+02,7.918553817898926354e+03,1.027141261541875792e+03,9.446745872497558594e+00,-6.501809358596801758e-01,-1.070886254310607910e+00,1.360000000000000000e+02
4.039624117881920938e+03,3.829760976876871155e+02,1.436580761260391228e+03,1.958147666940323688e+03,2.410498264582693082e+02,2.956469752526706998e+02,7.628901427300967043e+03,1.113773457934445105e+03,9.446745872497558594e+00,-6.501809358596801758e-01,-1.070886254310607910e+00,1.370000000000000000e+02
3.844290710570951887e+03,5.591353322828117598e+02,1.534299801375901552e+03,1.974700742489510958e+03,3.281018693529326811e+02,4.557080702288380962e+02,7.752670420412079693e+03,1.260747565480336561e+03,9.446745872497558594e+00,-6.501809358596801758e-01,-1.070886254310607910e+00,1.380000000000000000e+02
3.752269742855475670e+03,5.562299187139633432e+02,1.585553350089379819e+03,2.037110627409718290e+03,3.883297397764758898e+02,4.888741695906971927e+02,7.239409388520420180e+03,1.283976927849282220e+03,9.446745872497558594e+00,-6.501809358596801758e-01,-1.070886254310607910e+00,1.390000000000000000e+02
3.816706046225765022e+03,4.116040812031803853e+02,1.532240191410980515e+03,2.065170247823409227e+03,3.680677226994348530e+02,3.833138353289193674e+02,6.064399031316028413e+03,1.169012272266026230e+03,9.446745872497558594e+00,-6.501809358596801758e-01,-1.070886254310607910e+00,1.400000000000000000e+02
3.876536981202873903e+03,3.584362432505322431e+02,1.460480116759204975e+03,2.024357563656454658e+03,3.236558728076922762e+02,3.171323830375968100e+02,5.243179753600474214e+03,1.090709381449756620e+03,9.446745872497558594e+00,-6.501809358596801758e-01,-1.070886254310607910e+00,1.410000000000000000e+02
3.779126826561493544e+03,5.035511833588529953e+02,1.482765411751631291e+03,1.973707302850240012e+03,3.443257437940524142e+02,4.126339843971338723e+02,5.082044101330382546e+03,1.171937903575372729e+03,9.446745872497558594e+00,-6.501809358596801758e-01,-1.070886254310607910e+00,1.420000000000000000e+02
3.590188912620184055e+03,6.792794839313269222e+02,1.582686433134326762e+03,1.984992795509910138e+03,4.299051543271768878e+02,5.674901364915003796e+02,4.754348415155051043e+03,1.314023222501543387e+03,9.446745872497558594e+00,-6.501809358596801758e-01,-1.070886254310607910e+00,1.430000000000000000e+02
3.502523114573700695e+03,6.749107118729452850e+02,1.636854571060836861e+03,2.043917086356661457e+03,4.914934834394230165e+02,5.961228089414785245e+02,4.044880153819944098e+03,1.333076047351660236e+03,9.446745872497558594e+00,-6.501809358596801758e-01,-1.070886254310607910e+00,1.440000000000000000e+02
3.569395189621352984e+03,5.276008288440248180e+02,1.584389612993194532e+03,2.070888035961423157e+03,4.735171594850485235e+02,4.870670046721063500e+02,3.586166541185401002e+03,1.214602978102331690e+03,9.446745872497558594e+00,-6.501809358596801758e-01,-1.070886254310607910e+00,1.450000000000000000e+02
3.630259343162932055e+03,4.701152318255699356e+02,1.509666250694602240e+03,2.032726414770397241e+03,4.290292444457245438e+02,4.197692593257002045e+02,2.992730470738139047e+03,1.134292125177317757e+03,9.446745872497558594e+00,-6.501809358596801758e-01,-1.070886254310607910e+00,1.460000000000000000e+02
3.532070074134996503e+03,6.096099293676459183e+02,1.525050901520028674e+03,1.988923263449534716e+03,4.457783962219787099e+02,5.163835723841218623e+02,1.548188663736362287e+03,1.215551126933118212e+03,9.446745872497558594e+00,-6.501809358596801758e-01,-1.070886254310607910e+00,1.470000000000000000e+02
3.341296648283614559e+03,7.814554526572903796e+02,1.617042334846624726e+03,2.008023844581621233e+03,5.256671736911623611e+02,6.721057717739638520e+02,1.017344127651263989e+03,1.358676298870462233e+03,9.446745872497558594e+00,-6.501809358596801758e-01,-1.070886254310607910e+00,1.480000000000000000e+02
3.252928201630663352e+03,7.774791976019164395e+02,1.666766748606979490e+03,2.071190903822460314e+03,5.829490284219500609e+02,6.996222345196692913e+02,4.044005542513667024e+03,1.378286455872223996e+03,9.446745872497558594e+00,-6.501809358596801758e-01,-1.070886254310607910e+00,1.490000000000000000e+02
3.321444075448221156e+03,6.325404461776165590e+02,1.614269270704839073e+03,2.097086438501569319e+03,5.631503555447482086e+02,5.876955398067386795e+02,9.309809471668177139e+03,1.259319143665115007e+03,9.484992027282714844e+00,-5.736890435218811035e-01,-1.109132170677185059e+00,1.500000000000000000e+02
3.386318476146743706e+03,5.751441283799645134e+02,1.540628655351358248e+03,2.053295471980835828e+03,5.190469088154234214e+02,5.158219656082674192e+02,1.239722937676908077e+04,1.177279926105600680e+03,9.484992027282714844e+00,-5.736890435218811035e-01,-1.109132170677185059e+00,1.510000000000000000e+02
3.294432623286606940e+03,7.110456686012150840e+02,1.556727198422753645e+03,2.000602929968903481e+03,5.386542567545693601e+02,6.059183560499620853e+02,1.193433312980920346e+04,1.255463574930617142e+03,9.484992027282714844e+00,-5.736890435218811035e-01,-1.109132170677185059e+00,1.520000000000000000e+02
3.110640824402342332e+03,8.760764840840849956e+02,1.650978923511056564e+03,2.009719561057080682e+03,6.232985709364215836e+02,7.548162354251719535e+02,1.071922089589475581e+04,1.395460389239879987e+03,9.484992027282714844e+00,-5.736890435218811035e-01,-1.109132170677185059e+00,1.530000000000000000e+02
3.026578938349177406e+03,8.625295833892896553e+02,1.704137019812764265e+03,2.064871697248539931e+03,6.840340620258907620e+02,7.778694068698221145e+02,1.059942284155564084e+04,1.414410901159253626e+03,9.484992027282714844e+00,-5.736890435218811035e-01,-1.109132170677185059e+00,1.540000000000000000e+02
3.095937697684103114e+03,7.072140555483215394e+02,1.652796013294425393e+03,2.086305631668305068e+03,6.632903555338289152e+02,6.642742269227637735e+02,1.051273887241379816e+04,1.297818897282748367e+03,9.484992027282714844e+00,-5.736890435218811035e-01,-1.109132170677185059e+00,1.550000000000000000e+02
3.161550590065990036e+03,6.416678418061233060e+02,1.577730204339927695e+03,2.040458297250842406e+03,6.144123965047685942e+02,5.915932490087113820e+02,9.823257918338427771e+03,1.218426303991074747e+03,9.484992027282714844e+00,-5.736890435218811035e-01,-1.109132170677185059e+00,1.560000000000000000e+02
3.072311188291587314e+03,7.731736498564744124e+02,1.592794856471265120e+03,1.986003714032643984e+03,6.281081385521233642e+02,6.804812976017656183e+02,9.488229428638749596e+03,1.297052044563971322e+03,9.484992027282714844e+00,-5.736890435218811035e-01,-1.109132170677185059e+00,1.570000000000000000e+02
2.890559892887857131e+03,9.379801780109880838e+02,1.686082420316291064e+03,1.992505650545937897e+03,7.072840733494510914e+02,8.284433654268839291e+02,9.632978710225699615e+03,1.436528759104261553e+03,9.484992027282714844e+00,-5.736890435218811035e-01,-1.109132170677185059e+00,1.580000000000000000e+02
2.805955648665703848e+03,9.281014474347105079e+02,1.735411533149663228e+03,2.044171639296798276e+03,7.641098887980783729e+02,8.513902926130040214e+02,9.251009751060470080e+03,1.456540331870535738e+03,9.484992027282714844e+00,-5.736890435218811035e-01,-1.109132170677185059e+00,1.590000000000000000e+02
2.874489819273478133e+03,7.771320304028231476e+02,1.678632172321134931e+03,2.062010132578925550e+03,7.426584096020442303e+02,7.369659009864312793e+02,8.384477484219500184e+03,1.341932749186232286e+03,9.484992027282714844e+00,-5.736890435218811035e-01,-1.109132170677185059e+00,1.600000000000000000e+02
2.941271926106397586e+03,7.125063010203166414e+02,1.600227227576529003e+03,2.013837536924347660e+03,6.956458850976950998e+02,6.604609522604707763e+02,8.035556557809481092e+03,1.262360058961396135e+03,9.484992027282714844e+00,-5.736890435218811035e-01,-1.109132170677185059e+00,1.610000000000000000e+02
2.853850444796964439e+03,8.420807231537492044e+02,1.612979592512367162e+03,1.959585516669772915e+03,7.098752491031441423e+02,7.432732869062538157e+02,8.187249305569839635e+03,1.337784006357089311e+03,9.484992027282714844e+00,-5.736890435218811035e-01,-1.109132170677185059e+00,1.620000000000000000e+02
2.672989179638037967e+03,1.005209037038965107e+03,1.701565385506744860e+03,1.968858041749707809e+03,7.858347570493167495e+02,8.872925528594205389e+02,7.969434813974576173e+03,1.473155728768873814e+03,9.484992027282714844e+00,-5.736890435218811035e-01,-1.109132170677185059e+00,1.630000000000000000e+02
2.589281224154035954e+03,9.933381543989346483e+02,1.745333881860034126e+03,2.024548484459103747e+03,8.376808261618929237e+02,9.113318992701774732e+02,7.311737913170467436e+03,1.489192853201059734e+03,9.484992027282714844e+00,-5.736890435218811035e-01,-1.109132170677185059e+00,1.640000000000000000e+02
2.659383026046478335e+03,8.387604139568481969e+02,1.685509824177652263e+03,2.046152955798541370e+03,8.117701574912521210e+02,8.003793866776643426e+02,6.825122679316098584e+03,1.369259446604409277e+03,9.484992027282714844e+00,-5.736890435218811035e-01,-1.109132170677185059e+00,1.650000000000000000e+02
2.727514417066973692e+03,7.718510320600078103e+02,1.604858441777620101e+03,2.000793562914846007e+03,7.602333086862327036e+02,7.253042006387925085e+02,6.605479620085252463e+03,1.282636435547889960e+03,9.484992027282714844e+00,-5.736890435218811035e-01,-1.109132170677185059e+00,1.660000000000000000e+02
2.641880178694902497e+03,9.022256930635669505e+02,1.613176923631203863e+03,1.948129782388585227e+03,7.694949587208723187e+02,8.070515486505137233e+02,6.360750123186153360e+03,1.351748133452261754e+03,9.484992027282714844e+00,-5.736890435218811035e-01,-1.109132170677185059e+00,1.670000000000000000e+02
2.465540756307174888e+03,1.065733090746791277e+03,1.697403777093008102e+03,1.957113665774955734e+03,8.415834126894460496e+02,9.495171462995640468e+02,6.137528298391567660e+03,1.483246101880567039e+03,9.484992027282714844e+00,-5.736890435218811035e-01,-1.109132170677185059e+00,1.680000000000000000e+02
2.388821460002194726e+03,1.052818961242661999e+03,1.740047703737159281e+03,2.010412046611187179e+03,8.904571971941580841e+02,9.713877452966610235e+02,6.076839821528250468e+03,1.496411429359922749e+03,9.484992027282714844e+00,-5.736890435218811035e-01,-1.109132170677185059e+00,1.690000000000000000e+02
2.465448925675145802e+03,8.999773852602609168e+02,1.680476627393599301e+03,2.029050456473067243e+03,8.598752517556208659e+02,8.565275940040603473e+02,6.041921422080000411e+03,1.373199246508254419e+03,9.484992027282714844e+00,-5.736890435218811035e-01,-1.109132170677185059e+00,1.700000000000000000e+02
2.538705988743547096e+03,8.366862919864704509e+02,1.598961186420376180e+03,1.982166233610634663e+03,8.019306289432945505e+02,7.771144325579607539e+02,5.969166819178450169e+03,1.284267350652150071e+03,9.484992027282714844e+00,-5.736890435218811035e-01,-1.109132170677185059e+00,1.710000000000000000e+02
2.458096589902355845e+03,9.651233810962039570e+02,1.606912164577452131e+03,1.929273389503880026e+03,8.065516394042293769e+02,8.562638835816562732e+02,5.940949926447228790e+03,1.353697479367855067e+03,9.484992027282714844e+00,-5.736890435218811035e-01,-1.109132170677185059e+00,1.720000000000000000e+02
2.285842482089224177e+03,1.120075921157998209e+03,1.692736885091062504e+03,1.937805726983562636e+03,8.775335526102669519e+02,9.981112907276374244e+02,5.762377540200741350e+03,1.487284975054294591e+03,9.484992027282714844e+00,-5.736890435218811035e-01,-1.109132170677185059e+00,1.730000000000000000e+02
2.209951980459215520e+03,1.099061638760959340e+03,1.737278653045495957e+03,1.990715108202185547e+03,9.273855692528732106e+02,1.020951283570605938e+03,5.306942464294279489e+03,1.502605272167984822e+03,9.484992027282714844e+00,-5.736890435218811035e-01,-1.109132170677185059e+00,1.740000000000000000e+02
2.285631698009539832e+03,9.410814460122023775e+02,1.679295722818383183e+03,2.010439335077317082e+03,8.992018338563766520e+02,9.084778719697167162e+02,5.244628911768186299e+03,1.381103250232478331e+03,9.484992027282714844e+00,-5.736890435218811035e-01,-1.109132170677185059e+00,1.750000000000000000e+02
2.360666976795931078e+03,8.726501091335026103e+02,1.600282528776023355e+03,1.964793483148257110e+03,8.452462258621098954e+02,8.307428579630347940e+02,6.312487677800370875e+03,1.292870445144092628e+03,9.484992027282714844e+00,-5.736890435218811035e-01,-1.109132170677185059e+00,1.760000000000000000e+02
2.285541016584609679e+03,9.980702536384933410e+02,1.610174312941572680e+03,1.910018078966483699e+03,8.529025485926483725e+02,9.079598097941734522e+02,7.904318168205405527e+03,1.360835080265344459e+03,9.446745872497558594e+00,-5.736890435218811035e-01,-1.109132170677185059e+00,1.770000000000000000e+02
2.119108769661144834e+03,1.156296453416307486e+03,1.694649732579053307e+03,1.913618173476210359e+03,9.230721922836319209e+02,1.045149536191794823e+03,8.659046614341792520e+03,1.491550276698067137e+03,9.446745872497558594e+00,-5.736890435218811035e-01,-1.109132170677185059e+00,1.780000000000000000e+02
2.047579681034089845e+03,1.140200142447347389e+03,1.736094380814011856e+03,1.962130663381427439e+03,9.702398189281013856e+02,1.063991143095898451e+03,8.403195245031836748e+03,1.505473064264996083e+03,9.446745872497558594e+00,-5.736890435218811035e-01,-1.109132170677185059e+00,1.790000000000000000e+02
2.127785267601395390e+03,9.811956343593774363e+02,1.676582431272140184e+03,1.978874015737667833e+03,9.415539652904749346e+02,9.480620008078790306e+02,8.143712025950122552e+03,1.384981615491177763e+03,9.446745872497558594e+00,-5.736890435218811035e-01,-1.109132170677185059e+00,1.800000000000000000e+02
2.208374406910902508e+03,9.074908033340739166e+02,1.596846359033244426e+03,1.928305486085312623e+03,8.889821284127355057e+02,8.647380755593551385e+02,8.291891566568598137e+03,1.297747782494961939e+03,9.446745872497558594e+00,-5.736890435218811035e-01,-1.109132170677185059e+00,1.810000000000000000e+02
2.138371242457264088e+03,1.028912739185394912e+03,1.604832983305109792e+03,1.865450595274518491e+03,8.970125004850799542e+02,9.355561574277421641e+02,8.273801840317337337e+03,1.365176789632492728e+03,9.446745872497558594e+00,-5.736890435218811035e-01,-1.109132170677185059e+00,1.820000000000000000e+02
1.975647376636191439e+03,1.183456215588843406e+03,1.687868022713518258e+03,1.861806829651342014e+03,9.667039363354779198e+02,1.070024832964582401e+03,7.888161742985239471e+03,1.495613919558504676e+03,9.446745872497558594e+00,-5.736890435218811035e-01,-1.109132170677185059e+00,1.830000000000000000e+02
1.906618635605197596e+03,1.162227850994082928e+03,1.729562363680078306e+03,1.907708797492932717e+03,1.014110844666658295e+03,1.090288720454873555e+03,7.670652648225666780e+03,1.510880960291442534e+03,9.446745872497558594e+00,-5.736890435218811035e-01,-1.109132170677185059e+00,1.840000000000000000e+02
1.987785205188922191e+03,1.000654065983188957e+03,1.668837568662727335e+03,1.926023847439563724e+03,9.849922937546473349e+02,9.763088673188890425e+02,7.823746741769069558e+03,1.391462202539792088e+03,9.446745872497558594e+00,-5.736890435218811035e-01,-1.109132170677185059e+00,1.850000000000000000e+02
2.067533118153028227e+03,9.283764765934283787e+02,1.584550576948455273e+03,1.879378197167970029e+03,9.295287039708034627e+02,8.942371751045131987e+02,7.901258711063085684e+03,1.303071343768604947e+03,9.446745872497558594e+00,-5.736890435218811035e-01,-1.109132170677185059e+00,1.860000000000000000e+02
1.996381422972877772e+03,1.049710497099666100e+03,1.588291918265565073e+03,1.821843917283140399e+03,9.342011888916897533e+02,9.671428887331576334e+02,7.654476830452623290e+03,1.368161659588377461e+03,9.446745872497558594e+00,-5.736890435218811035e-01,-1.109132170677185059e+00,1.870000000000000000e+02
1.834051209181627200e+03,1.201370236969741654e+03,1.670549250430820393e+03,1.822838187900258163e+03,1.002954473146468899e+03,1.103697094541817933e+03,7.363088596992484781e+03,1.496794037461937933e+03,9.446745872497558594e+00,-5.736890435218811035e-01,-1.109132170677185059e+00,1.880000000000000000e+02
1.766963521229638900e+03,1.180971862098771453e+03,1.713133911386942145e+03,1.870095299972860630e+03,1.051153928289297482e+03,1.123485496624129610e+03,7.287086226787683700e+03,1.510451576313798341e+03,9.446745872497558594e+00,-5.736890435218811035e-01,-1.109132170677185059e+00,1.890000000000000000e+02
1.850794149309514069e+03,1.025011757219509491e+03,1.652937910514237956e+03,1.887259440285609344e+03,1.021853998333778122e+03,1.007023053437339513e+03,7.349932937488211792e+03,1.388697043762217618e+03,9.446745872497558594e+00,-5.736890435218811035e-01,-1.109132170677185059e+00,1.900000000000000000e+02
1.934069347926159935e+03,9.551528331911727037e+02,1.569459548192351122e+03,1.840092900448828914e+03,9.639237918211126726e+02,9.227953120982820110e+02,7.350332431421250476e+03,1.297309339181955238e+03,9.446745872497558594e+00,-5.736890435218811035e-01,-1.109132170677185059e+00,1.910000000000000000e+02
1.867383648455603179e+03,1.073166356870993241e+03,1.573370372091710578e+03,1.783054714151466669e+03,9.637863538910745547e+02,9.932384859420342309e+02,7.188659175821959252e+03,1.358652727452755698e+03,9.446745872497558594e+00,-5.736890435218811035e-01,-1.109132170677185059e+00,1.920000000000000000e+02
1.708937732742708249e+03,1.223216105912040803e+03,1.652266269013735382e+03,1.783671307871243243e+03,1.025843774868220635e+03,1.125340155193413693e+03,6.940128108196973699e+03,1.482669059178631414e+03,9.446745872497558594e+00,-5.736890435218811035e-01,-1.109132170677185059e+00,1.930000000000000000e+02
1.643278407001431333e+03,1.206196883957449245e+03,1.688874703820787545e+03,1.830212504276820255e+03,1.067326487617576277e+03,1.140902873072517423e+03,6.802428771692204464e+03,1.492618799505216884e+03,9.446745872497558594e+00,-5.736890435218811035e-01,-1.109132170677185059e+00,1.940000000000000000e+02
1.725995328268630146e+03,1.052284816048052107e+03,1.624708262358548836e+03,1.848247040745984123e+03,1.033913807356295138e+03,1.024031176055237665e+03,6.857180810808922615e+03,1.370295203068326373e+03,9.446745872497558594e+00,-5.736890435218811035e-01,-1.109132170677185059e+00,1.950000000000000000e+02
1.807301370392705394e+03,9.798769748602067011e+02,1.540712519799035363e+03,1.802346748141467742e+03,9.753316474266464411e+02,9.420669369627330525e+02,6.911534092669320671e+03,1.280539772893344434e+03,9.446745872497558594e+00,-5.736890435218811035e-01,-1.109132170677185059e+00,1.960000000000000000e+02
1.739682484418231979e+03,1.096034680005517203e+03,1.545031540131275506e+03,1.744657214145690887e+03,9.765601720327142630e+02,1.013318695262967140e+03,6.753182323573519170e+03,1.342920708333887887e+03,9.446745872497558594e+00,-5.736890435218811035e-01,-1.109132170677185059e+00,1.970000000000000000e+02
1.582270825143091315e+03,1.247867036162854220e+03,1.624599370251487926e+03,1.744077454839018174e+03,1.040072985433830354e+03,1.144176515240051003e+03,6.476393480537364667e+03,1.467124246558611958e+03,9.446745872497558594e+00,-5.736890435218811035e-01,-1.109132170677185059e+00,1.980000000000000000e+02
1.519327995359057240e+03,1.231707090926495312e+03,1.663605946003110603e+03,1.791437765582223619e+03,1.081843391645998963e+03,1.158790114636030921e+03,6.351126103373261685e+03,1.477817766004449368e+03,9.446745872497558594e+00,-5.736890435218811035e-01,-1.109132170677185059e+00,1.990000000000000000e+02
1.605424238476931350e+03,1.074985687434413194e+03,1.602174717986296400e+03,1.811077009837880269e+03,1.047140983648134352e+03,1.040774667542310226e+03,6.428575394089149995e+03,1.355921070822372258e+03,9.446745872497558594e+00,-5.736890435218811035e-01,-1.109132170677185059e+00,2.000000000000000000e+02
1.689789073156457562e+03,1.000022371813574864e+03,1.518196846634203666e+03,1.765156543416481782e+03,9.866174956005613694e+02,9.546412587974573398e+02,6.475717293349080137e+03,1.264830007931029741e+03,9.446745872497558594e+00,-5.736890435218811035e-01,-1.109132170677185059e+00,2.010000000000000000e+02
1.624083591531564707e+03,1.116960651830285315e+03,1.520724642771679100e+03,1.706745180640595663e+03,9.872342440654533675e+02,1.019139582439563128e+03,6.309556295005021639e+03,1.326235330910907123e+03,9.446745872497558594e+00,-5.736890435218811035e-01,-1.109132170677185059e+00,2.020000000000000000e+02
1.466633592684343967e+03,1.270432548530855229e+03,1.600258456701990326e+03,1.706062994770476053e+03,1.052556002571292311e+03,1.144029045721767034e+03,6.044687657706311256e+03,1.452890288212918676e+03,9.446745872497558594e+00,-5.736890435218811035e-01,-1.109132170677185059e+00,2.030000000000000000e+02
1.402061578683506013e+03,1.253213317436351417e+03,1.641223589866734528e+03,1.752098105032567673e+03,1.097437544939255304e+03,1.154410053843099377e+03,5.928274163911093638e+03,1.468172975995198158e+03,9.446745872497558594e+00,-5.736890435218811035e-01,-1.109132170677185059e+00,2.040000000000000000e+02
1.487510673888772544e+03,1.091295683397411722e+03,1.580862477441857209e+03,1.768357535324058517e+03,1.065064052225886826e+03,1.032721743572274136e+03,6.003301066909324618e+03,1.349198305237469413e+03,9.446745872497558594e+00,-5.736890435218811035e-01,-1.109132170677185059e+00,2.050000000000000000e+02
1.574696316616744298e+03,1.006790976855490044e+03,1.495887095414204850e+03,1.720533630431744768e+03,1.005089038496554394e+03,9.448792362457020317e+02,6.054906585393370733e+03,1.258465474170191101e+03,9.446745872497558594e+00,-5.736890435218811035e-01,-1.109132170677185059e+00,2.060000000000000000e+02
1.514063562810165422e+03,1.112156974710665736e+03,1.496456953522624190e+03,1.664189818258384548e+03,1.004822179790039399e+03,1.012226108421518802e+03,5.899482421952378900e+03,1.319372228793632530e+03,9.446745872497558594e+00,-5.736890435218811035e-01,-1.109132170677185059e+00,2.070000000000000000e+02
1.360151186361470536e+03,1.257191876786213470e+03,1.573987634193186295e+03,1.666790904133553795e+03,1.068514977424768176e+03,1.142912144601095406e+03,5.640085961408193725e+03,1.445397662038794351e+03,9.446745872497558594e+00,-6.119350194931030273e-01,-1.109132170677185059e+00,2.080000000000000000e+02
1.296224540110980342e+03,1.237128860514690359e+03,1.613398404111238051e+03,1.714166204439525245e+03,1.111776201806462495e+03,1.157663440237853138e+03,5.523574361305269122e+03,1.459720118391359392e+03,9.446745872497558594e+00,-6.119350194931030273e-01,-1.109132170677185059e+00,2.090000000000000000e+02
1.381701788780386778e+03,1.075061421103415114e+03,1.552435961577322360e+03,1.730360690348166372e+03,1.078818899920443982e+03,1.037670752238951991e+03,5.599844845852392609e+03,1.339924438055353221e+03,9.446745872497558594e+00,-6.119350194931030273e-01,-1.109132170677185059e+00,2.100000000000000000e+02
1.470360189939476641e+03,9.908567802613129061e+02,1.467540192565479629e+03,1.681865280621919283e+03,1.019594154973732202e+03,9.502546699014305887e+02,5.653197551393731374e+03,1.248537194063115294e+03,9.446745872497558594e+00,-6.119350194931030273e-01,-1.109132170677185059e+00,2.110000000000000000e+02
1.412519631486603885e+03,1.098238616958856028e+03,1.468475853752352123e+03,1.623335709218752982e+03,1.019923230192616757e+03,1.016572157787355991e+03,5.500486651525554407e+03,1.307656406160261213e+03,9.446745872497558594e+00,-6.119350194931030273e-01,-1.109132170677185059e+00,2.120000000000000000e+02
1.262302717154400398e+03,1.245924006448404270e+03,1.547238744776213025e+03,1.623085513672747766e+03,1.082358711480795591e+03,1.144292140089205986e+03,5.244548722266316872e+03,1.430191424016924202e+03,9.446745872497558594e+00,-6.119350194931030273e-01,-1.109132170677185059e+00,2.130000000000000000e+02
1.202996802785147793e+03,1.225026606323086071e+03,1.588476090412630128e+03,1.669417143911139647e+03,1.122955296007613924e+03,1.156239017455595103e+03,5.132440284621181490e+03,1.440849081750433243e+03,9.446745872497558594e+00,-6.119350194931030273e-01,-1.109132170677185059e+00,2.140000000000000000e+02
1.293258340617680005e+03,1.059438812247935402e+03,1.527499294529465715e+03,1.685901010079649495e+03,1.087179178624080123e+03,1.035001602249925554e+03,5.213856943659497119e+03,1.318807265987952178e+03,9.446745872497558594e+00,-6.119350194931030273e-01,-1.109132170677185059e+00,2.150000000000000000e+02
1.385967832371572058e+03,9.745887780497532731e+02,1.439246035136435694e+03,1.636502012943900354e+03,1.024024411935151420e+03,9.456436793716143256e+02,5.272542222141511957e+03,1.226022470517802503e+03,9.446745872497558594e+00,-6.119350194931030273e-01,-1.109132170677185059e+00,2.160000000000000000e+02
1.331780698052079060e+03,1.084786026365885391e+03,1.435329431386512624e+03,1.576307473790028780e+03,1.017746908473671510e+03,1.007907600971773718e+03,5.125364803359846519e+03,1.282979296888858926e+03,9.446745872497558594e+00,-6.119350194931030273e-01,-1.109132170677185059e+00,2.170000000000000000e+02
1.184961261189593188e+03,1.234388871738203989e+03,1.510465036967975720e+03,1.575805335776041375e+03,1.072904514039432797e+03,1.132470692701093412e+03,4.875044770148638236e+03,1.402773212395922428e+03,9.446745872497558594e+00,-6.119350194931030273e-01,-1.109132170677185059e+00,2.180000000000000000e+02
1.127314124604490189e+03,1.214835650829129690e+03,1.550493059366301623e+03,1.622746385469240977e+03,1.109560237462110308e+03,1.144973809953694854e+03,4.767760767228189252e+03,1.411976581727242774e+03,9.446745872497558594e+00,-6.119350194931030273e-01,-1.109132170677185059e+00,2.190000000000000000e+02
1.216624427711003136e+03,1.053683392122360374e+03,1.490997682767890183e+03,1.639276126613202905e+03,1.073344905456495553e+03,1.026531447464228677e+03,4.853315630696150947e+03,1.289756577987343235e+03,9.446745872497558594e+00,-6.119350194931030273e-01,-1.109132170677185059e+00,2.200000000000000000e+02
1.307605018015453425e+03,9.736861345742622689e+02,1.405949909979374979e+03,1.590463666379615461e+03,1.009673289179122776e+03,9.398378155450734539e+02,4.917202690975046607e+03,1.195393015095296278e+03,9.446745872497558594e+00,-6.119350194931030273e-01,-1.109132170677185059e+00,2.210000000000000000e+02
1.253199312834611192e+03,1.083259354596991670e+03,1.403981649612341926e+03,1.531845076508930561e+03,1.001686954905254424e+03,1.004589085487629518e+03,4.776841819741546715e+03,1.248694751217687326e+03,9.446745872497558594e+00,-6.119350194931030273e-01,-1.109132170677185059e+00,2.220000000000000000e+02
1.107509368362636906e+03,1.228309039609865977e+03,1.477745933389848688e+03,1.531114488029206768e+03,1.056689696969647457e+03,1.131432988560019339e+03,4.532876344137222986e+03,1.366122375550068227e+03,9.446745872497558594e+00,-6.119350194931030273e-01,-1.109132170677185059e+00,2.230000000000000000e+02
1.050782105857472288e+03,1.205758307219505923e+03,1.514690609449010708e+03,1.574892705792146899e+03,1.096097014104308300e+03,1.144555824445862072e+03,4.429843554978069733e+03,1.376150168922572902e+03,9.446745872497558594e+00,-6.119350194931030273e-01,-1.109132170677185059e+00,2.240000000000000000e+02
1.140483941973363017e+03,1.041964944495025293e+03,1.452755888041518119e+03,1.588707877634758006e+03,1.063536493252904393e+03,1.024650743174262061e+03,4.518503188148406480e+03,1.255092817506151960e+03,9.446745872497558594e+00,-6.119350194931030273e-01,-1.109132170677185059e+00,2.250000000000000000e+02
1.232208220780004922e+03,9.556003268322506301e+02,1.365756434927297732e+03,1.539984183455427228e+03,1.002850593374790151e+03,9.359469868608891829e+02,4.585595365899999706e+03,1.160301634011323586e+03,9.446745872497558594e+00,-6.119350194931030273e-01,-1.109132170677185059e+00,2.260000000000000000e+02
1.179094818959086751e+03,1.058344374502682740e+03,1.361858232008753248e+03,1.482520909686319555e+03,9.973096669634833233e+02,9.997370560750889581e+02,4.448104032822793670e+03,1.214405550324805290e+03,9.446745872497558594e+00,-6.119350194931030273e-01,-1.109132170677185059e+00,2.270000000000000000e+02
1.034428729475490400e+03,1.202832055112652142e+03,1.435026525673311198e+03,1.483250913579776352e+03,1.053289359254598594e+03,1.127419098869935851e+03,4.206092722473170397e+03,1.335772783814264130e+03,9.446745872497558594e+00,-6.119350194931030273e-01,-1.109132170677185059e+00,2.280000000000000000e+02
9.782840730917828296e+02,1.185781663850059886e+03,1.473306803212839213e+03,1.530913718858329958e+03,1.090601958298663249e+03,1.142962946895387176e+03,4.104664039229581249e+03,1.349911776531103214e+03,9.523238182067871094e+00,-5.736890435218811035e-01,-1.147378087043762207e+00,2.290000000000000000e+02
1.069273302118126594e+03,1.027965118456340178e+03,1.413280474608291570e+03,1.550343260458962959e+03,1.054040971534007667e+03,1.025137240602617794e+03,4.195330595515178175e+03,1.230466144232129409e+03,9.523238182067871094e+00,-5.736890435218811035e-01,-1.147378087043762207e+00,2.300000000000000000e+02
1.163602531389793512e+03,9.449729966777840673e+02,1.327896998732472184e+03,1.504212080180786415e+03,9.905808602694128240e+02,9.357238586560988551e+02,4.265288182562148904e+03,1.135891553804328623e+03,9.523238182067871094e+00,-5.736890435218811035e-01,-1.147378087043762207e+00,2.310000000000000000e+02
1.113037502257747292e+03,1.048420501733787205e+03,1.325215463074458739e+03,1.444374337967650263e+03,9.842876776257594429e+02,9.960453077837903493e+02,4.131882743876321001e+03,1.189551875593359455e+03,9.523238182067871094e+00,-5.736890435218811035e-01,-1.147378087043762207e+00,2.320000000000000000e+02
9.694141182401494916e+02,1.190895658843691081e+03,1.397948364370153286e+03,1.441061688257840615e+03,1.039905870020193561e+03,1.120078510782456306e+03,3.894544549243062647e+03,1.308526450250784819e+03,9.523238182067871094e+00,-5.736890435218811035e-01,-1.147378087043762207e+00,2.330000000000000000e+02
9.137517995734688157e+02,1.169773711209568319e+03,1.433602105868240869e+03,1.485618329469678429e+03,1.076894802650846941e+03,1.133815430734502115e+03,3.796799484777817270e+03,1.319111414463168103e+03,9.523238182067871094e+00,-5.736890435218811035e-01,-1.147378087043762207e+00,2.340000000000000000e+02
1.006808962282757420e+03,1.007439042588352550e+03,1.371591042510667648e+03,1.502099723022463877e+03,1.041212738458099011e+03,1.015906301230706958e+03,3.890079419270331528e+03,1.197861628939858292e+03,9.523238182067871094e+00,-5.736890435218811035e-01,-1.147378087043762207e+00,2.350000000000000000e+02
1.105323143741903550e+03,9.200183707968749331e+02,1.287619540582340960e+03,1.453241878460133648e+03,9.794191284522321439e+02,9.266962102926686384e+02,3.963529655975744390e+03,1.103463875421120520e+03,9.523238182067871094e+00,-5.736890435218811035e-01,-1.147378087043762207e+00,2.360000000000000000e+02
1.060026247839487041e+03,1.019335094900052809e+03,1.287882133418414924e+03,1.392930232469181647e+03,9.735811478258829084e+02,9.857891601007559075e+02,3.835077964803938812e+03,1.156871871352551807e+03,9.523238182067871094e+00,-5.736890435218811035e-01,-1.147378087043762207e+00,2.370000000000000000e+02
9.217868441720247574e+02,1.159716051226833315e+03,1.361549091776000751e+03,1.391240384113070832e+03,1.027847119360693796e+03,1.106497909082023853e+03,3.602507102751766070e+03,1.274542550493581984e+03,9.523238182067871094e+00,-5.736890435218811035e-01,-1.147378087043762207e+00,2.380000000000000000e+02
8.707577328467159532e+02,1.139633025648774947e+03,1.396121245164957600e+03,1.437048627582467816e+03,1.062733440180596517e+03,1.116150660006351245e+03,3.507915872477307857e+03,1.284102304100494166e+03,9.523238182067871094e+00,-5.736890435218811035e-01,-1.147378087043762207e+00,2.390000000000000000e+02
9.668450475050158275e+02,9.799440069377915279e+02,1.332843510710839837e+03,1.454047364897188800e+03,1.024466571349877540e+03,9.950445834629708770e+02,3.603549476604691336e+03,1.162217274278894365e+03,9.523238182067871094e+00,-5.736890435218811035e-01,-1.147378087043762207e+00,2.400000000000000000e+02
1.067204123609074486e+03,8.953415069752536510e+02,1.247170332219169723e+03,1.406297415471355635e+03,9.591182796662378678e+02,9.034747459574823552e+02,3.679532633973843986e+03,1.066603217973646224e+03,9.523238182067871094e+00,-5.736890435218811035e-01,-1.147378087043762207e+00,2.410000000000000000e+02
1.023953311685958397e+03,9.979920953131613715e+02,1.245025956508433410e+03,1.346366451201174641e+03,9.498725407694314526e+02,9.607505660432680088e+02,3.553643947528287754e+03,1.118337774056119088e+03,9.523238182067871094e+00,-5.736890435218811035e-01,-1.147378087043762207e+00,2.420000000000000000e+02
8.879931263925082021e+02,1.141885647739238266e+03,1.318111626183508179e+03,1.342057429948951722e+03,1.003035112493261295e+03,1.081389774775252590e+03,3.323135711218323195e+03,1.234779135038977074e+03,9.523238182067871094e+00,-5.736890435218811035e-01,-1.147378087043762207e+00,2.430000000000000000e+02
8.381597323157329811e+02,1.124138248159260911e+03,1.355392261536478145e+03,1.384368489509152823e+03,1.038929597824690063e+03,1.093230896088193731e+03,3.230559544421437749e+03,1.243749522981988775e+03,9.523238182067871094e+00,-5.736890435218811035e-01,-1.147378087043762207e+00,2.440000000000000000e+02
9.344527501616576046e+02,9.657801616688557260e+02,1.294768284519872850e+03,1.401218391244022314e+03,1.001128696879971358e+03,9.743464636451217302e+02,3.328796736478252569e+03,1.121481008714207746e+03,9.523238182067871094e+00,-5.736890435218811035e-01,-1.147378087043762207e+00,2.450000000000000000e+02
1.035928649059665076e+03,8.822699540590870129e+02,1.208079886590667229e+03,1.356027891016103240e+03,9.345425470465770559e+02,8.826855944587750855e+02,3.408615866460473626e+03,1.025461013239504609e+03,9.523238182067871094e+00,-5.736890435218811035e-01,-1.147378087043762207e+00,2.460000000000000000e+02
9.956009330182760095e+02,9.845897339172202010e+02,1.202723127670021313e+03,1.297121733011071228e+03,9.241087904331261598e+02,9.379712418891463130e+02,3.288181266453822900e+03,1.077215499973868646e+03,9.523238182067871094e+00,-5.736890435218811035e-01,-1.147378087043762207e+00,2.470000000000000000e+02
8.631173977989401465e+02,1.125587578414003474e+03,1.273625124548594613e+03,1.291548039551332295e+03,9.775024585791079517e+02,1.056459263800563349e+03,3.063853821993581732e+03,1.195047208192516337e+03,9.523238182067871094e+00,-5.736890435218811035e-01,-1.147378087043762207e+00,2.480000000000000000e+02
8.159324913758582625e+02,1.103590892044458997e+03,1.309532374863589212e+03,1.332792622437213140e+03,1.014088339312443168e+03,1.066615921934599100e+03,2.976609546404361026e+03,1.206839601995728117e+03,9.523238182067871094e+00,-5.736890435218811035e-01,-1.147378087043762207e+00,2.490000000000000000e+02
9.140168072118667624e+02,9.407760920031741989e+02,1.246971070343505744e+03,1.348907028975523644e+03,9.764718311398937658e+02,9.463471762250774191e+02,3.079061466627414120e+03,1.087020303581992266e+03,9.523238182067871094e+00,-5.736890435218811035e-01,-1.147378087043762207e+00,2.500000000000000000e+02
1.016947482797535486e+03,8.525864061121947088e+02,1.159036956781250410e+03,1.302196614435148149e+03,9.101633331234279467e+02,8.538394406677798543e+02,3.163190584250260144e+03,9.913515513686061240e+02,9.523238182067871094e+00,-5.736890435218811035e-01,-1.147378087043762207e+00,2.510000000000000000e+02
9.778156598163222952e+02,9.517213136390018917e+02,1.154581235777251095e+03,1.243290784428819279e+03,9.004693115849186142e+02,9.093876815061339585e+02,3.047373352484280986e+03,1.042218733115151736e+03,9.523238182067871094e+00,-5.736890435218811035e-01,-1.147378087043762207e+00,2.520000000000000000e+02
8.461525518540802295e+02,1.093498308055433881e+03,1.227593739145811014e+03,1.241901373556072940e+03,9.542227549020308288e+02,1.029432637372295176e+03,2.826744560205683229e+03,1.160049106699102595e+03,9.523238182067871094e+00,-5.736890435218811035e-01,-1.147378087043762207e+00,2.530000000000000000e+02
7.997544984353589825e+02,1.074931733218024419e+03,1.266133572378394092e+03,1.288838546321490867e+03,9.904283152454054289e+02,1.041647524600570250e+03,2.741892828333900979e+03,1.172881093797795074e+03,9.408499717712402344e+00,-5.354431271553039551e-01,-1.070886254310607910e+00,2.540000000000000000e+02
8.992292782013373653e+02,9.147113424547551404e+02,1.207386761979719267e+03,1.307559263092762194e+03,9.524724458803048037e+02,9.224885202522018517e+02,2.846709295041175210e+03,1.053494389924381721e+03,9.408499717712402344e+00,-5.354431271553039551e-01,-1.070886254310607910e+00,2.550000000000000000e+02
1.004098863213845107e+03,8.275927893030539053e+02,1.123194434803112017e+03,1.260449582922303307e+03,8.862576698441989720e+02,8.296935026174905943e+02,2.934259459775843425e+03,9.569594993926748430e+02,9.408499717712402344e+00,-5.354431271553039551e-01,-1.070886254310607910e+00,2.560000000000000000e+02
9.663279893632461608e+02,9.269655681856011142e+02,1.119600004222580537e+03,1.200587847456054078e+03,8.765244699446284358e+02,8.846152244435670582e+02,2.822456074221181552e+03,1.006311364809082079e+03,9.408499717712402344e+00,-5.354431271553039551e-01,-1.070886254310607910e+00,2.570000000000000000e+02
8.345910279681484099e+02,1.067576220489137995e+03,1.190792371382294732e+03,1.197145815385867536e+03,9.297486875282102119e+02,1.004085927362519215e+03,2.605305931951868843e+03,1.122211132522073967e+03,9.408499717712402344e+00,-5.354431271553039551e-01,-1.070886254310607910e+00,2.580000000000000000e+02
7.874183159729400359e+02,1.047862223367196748e+03,1.227575086872355314e+03,1.240011261831476077e+03,9.653555945890320800e+02,1.014614567208878725e+03,2.523079008400420207e+03,1.132653115734388848e+03,9.408499717712402344e+00,-5.354431271553039551e-01,-1.070886254310607910e+00,2.590000000000000000e+02
8.867300501949721365e+02,8.898806627289359312e+02,1.167771200492079515e+03,1.255480675377144507e+03,9.273246301694871363e+02,8.926725129023170666e+02,2.630491798274750181e+03,1.011575817549010026e+03,9.408499717712402344e+00,-5.354431271553039551e-01,-1.070886254310607910e+00,2.600000000000000000e+02
9.919246069162272761e+02,8.067908830594924439e+02,1.082127780265771435e+03,1.208483556259237957e+03,8.616473123523237518e+02,7.982516462701005366e+02,2.721519871644777595e+03,9.153886044569480873e+02,9.408499717712402344e+00,-5.354431271553039551e-01,-1.070886254310607910e+00,2.610000000000000000e+02
9.534643834269627405e+02,9.064115085931116482e+02,1.077591883261464318e+03,1.149777999564951642e+03,8.527055849566422694e+02,8.539638966910497402e+02,2.613761393731725548e+03,9.665100086018292131e+02,9.408499717712402344e+00,-5.354431271553039551e-01,-1.070886254310607910e+00,2.620000000000000000e+02
8.187295608930526214e+02,1.043904072704494865e+03,1.150201476389551317e+03,1.145695325587889783e+03,9.071058736372306157e+02,9.754938661168480394e+02,2.399934691602029488e+03,1.084123881867160890e+03,9.408499717712402344e+00,-5.354431271553039551e-01,-1.070886254310607910e+00,2.630000000000000000e+02
7.656820249799911835e+02,1.023682829290265545e+03,1.190316578807554833e+03,1.187803008524158940e+03,9.451865844665508121e+02,9.886687011069416258e+02,2.319337274590965535e+03,1.096300283716259401e+03,9.408499717712402344e+00,-5.354431271553039551e-01,-1.070886254310607910e+00,2.640000000000000000e+02
8.561923364967587986e+02,8.685598896906258233e+02,1.133965398181153432e+03,1.204839113663123499e+03,9.106625918986937904e+02,8.703679298821225530e+02,2.428689167231357715e+03,9.774075621485199008e+02,9.408499717712402344e+00,-5.354431271553039551e-01,-1.070886254310607910e+00,2.650000000000000000e+02
9.508023584892616782e+02,7.874207267303190747e+02,1.050834137239147822e+03,1.160025029034057297e+03,8.468816402444372216e+02,7.791742643663674244e+02,2.523444777482360223e+03,8.825442239484427773e+02,9.408499717712402344e+00,-5.354431271553039551e-01,-1.070886254310607910e+00,2.660000000000000000e+02
9.023345109525671432e+02,8.884507296403826331e+02,1.046826090077878689e+03,1.101421058321178862e+03,8.362290947764804514e+02,8.353880395873757152e+02,2.421026950731018587e+03,9.333637758389140799e+02,9.408499717712402344e+00,-5.354431271553039551e-01,-1.070886254310607910e+00,2.670000000000000000e+02
7.595172947224800737e+02,1.030424240773812926e+03,1.117019947507354118e+03,1.096342242736047410e+03,8.868446588263641388e+02,9.559154676891748750e+02,2.212926238958880276e+03,1.051308854218488705e+03,9.408499717712402344e+00,-5.354431271553039551e-01,-1.070886254310607910e+00,2.680000000000000000e+02
6.992468973150316742e+02,1.015950418554307362e+03,1.153024086264335892e+03,1.138795517317479607e+03,9.215963264696101760e+02,9.701936293949884202e+02,2.138049221169905650e+03,1.066459823108321871e+03,9.408499717712402344e+00,-5.354431271553039551e-01,-1.070886254310607910e+00,2.690000000000000000e+02
7.822483583330104011e+02,8.632042782062317201e+02,1.093807109302616482e+03,1.157606016436417121e+03,8.846662072494091262e+02,8.553800435342127457e+02,2.252325619957493473e+03,9.516062019823666560e+02,9.408499717712402344e+00,-5.354431271553039551e-01,-1.070886254310607910e+00,2.700000000000000000e+02
8.703306682885722694e+02,7.814983039607368482e+02,1.010551656441331943e+03,1.115134255987679353e+03,8.196992821788553556e+02,7.671063541565235937e+02,2.351503901589021552e+03,8.597679719450397897e+02,9.408499717712402344e+00,-5.354431271553039551e-01,-1.070886254310607910e+00,2.710000000000000000e+02
8.182284377790383587e+02,8.823364375689761800e+02,1.008390838015713598e+03,1.059822710255626589e+03,8.103982040860428242e+02,8.247068217157902836e+02,2.253443779809091211e+03,9.130286483835625404e+02,9.408499717712402344e+00,-5.354431271553039551e-01,-1.070886254310607910e+00,2.720000000000000000e+02
6.744680617216963583e+02,1.025054769937005403e+03,1.081073611150639408e+03,1.058851031926518772e+03,8.639623498332657618e+02,9.463839902475356212e+02,2.049617335076007294e+03,1.032995418830490053e+03,9.408499717712402344e+00,-5.354431271553039551e-01,-1.070886254310607910e+00,2.730000000000000000e+02
6.150090020857023774e+02,1.011386329507196024e+03,1.119045870700922023e+03,1.104318873330592396e+03,8.999978405413512519e+02,9.612595304935312015e+02,1.978412345885790273e+03,1.048231458312940958e+03,9.408499717712402344e+00,-5.354431271553039551e-01,-1.070886254310607910e+00,2.740000000000000000e+02
7.014104319942998700e+02,8.590011529473422343e+02,1.059937652446227730e+03,1.123851040118081073e+03,8.621310484630175779e+02,8.451526505190395255e+02,2.095752719274558331e+03,9.317554924819833104e+02,9.408499717712402344e+00,-5.354431271553039551e-01,-1.070886254310607910e+00,2.750000000000000000e+02
7.962669115527496615e+02,7.755641281776115648e+02,9.740010477654850547e+02,1.080760211087987045e+03,7.961991589893113996e+02,7.546620056271895010e+02,2.198048830220162927e+03,8.386014046111049538e+02,9.408499717712402344e+00,-5.354431271553039551e-01,-1.070886254310607910e+00,2.760000000000000000e+02
7.521756108427834988e+02,8.717947019610692223e+02,9.673065112647873320e+02,1.024476204850352588e+03,7.858709697866488568e+02,8.109616262592935527e+02,2.103034301674681046e+03,8.907280305356962344e+02,9.408499717712402344e+00,-5.354431271553039551e-01,-1.070886254310607910e+00,2.770000000000000000e+02
6.147452023676414683e+02,1.009681701073795921e+03,1.036884886038775221e+03,1.022046130487584378e+03,8.375023671466024098e+02,9.315759486552815360e+02,1.901188737493845110e+03,1.008838299049175475e+03,9.408499717712402344e+00,-5.354431271553039551e-01,-1.070886254310607910e+00,2.780000000000000000e+02
5.600558232130097167e+02,9.926701934671345953e+02,1.076620141535109724e+03,1.065911417871750018e+03,8.739304639624806441e+02,9.437129655533153709e+02,1.831242381143496459e+03,1.023733639931395373e+03,9.408499717712402344e+00,-5.354431271553039551e-01,-1.070886254310607910e+00,2.790000000000000000e+02
6.515131628815361182e+02,8.361770523111481452e+02,1.024238941123294353e+03,1.084933646237050198e+03,8.419065616615880572e+02,8.230484583284051041e+02,1.951140584511125780e+03,9.102880289815893775e+02,9.408499717712402344e+00,-5.354431271553039551e-01,-1.070886254310607910e+00,2.800000000000000000e+02
7.515117044411963434e+02,7.475297678735241789e+02,9.466246136393492634e+02,1.042858698620137147e+03,7.835929410040589573e+02,7.272324336139135994e+02,2.058110250166191690e+03,8.203316650551005296e+02,9.523238182067871094e+00,-5.354431271553039551e-01,-1.070886254310607910e+00,2.810000000000000000e+02
7.108501441287990019e+02,8.416913202876712603e+02,9.468280674905363412e+02,9.882377861146815121e+02,7.772415890672873502e+02,7.783283913551640580e+02,1.968338862166878243e+03,8.725404932537367131e+02,9.523238182067871094e+00,-5.354431271553039551e-01,-1.070886254310607910e+00,2.820000000000000000e+02
5.746507735678023892e+02,9.822266809256598208e+02,1.020849005110680082e+03,9.870262749243356666e+02,8.299358685140778107e+02,8.952975509974967281e+02,1.770910368630600715e+03,9.896832804322057200e+02,9.523238182067871094e+00,-5.354431271553039551e-01,-1.070886254310607910e+00,2.830000000000000000e+02
5.199536891802563332e+02,9.686253873509631376e+02,1.061321737954696800e+03,1.030793166301013116e+03,8.670987182485405356e+02,9.067948342562503967e+02,1.704703865492738259e+03,1.004738779014182001e+03,9.523238182067871094e+00,-5.354431271553039551e-01,-1.070886254310607910e+00,2.840000000000000000e+02
6.112819373847596580e+02,8.137659779306650307e+02,1.004898632203865418e+03,1.047767646732501817e+03,8.335335602614395611e+02,7.875491369910341746e+02,1.827870495718758320e+03,8.899199100151890889e+02,9.523238182067871094e+00,-5.354431271553039551e-01,-1.070886254310607910e+00,2.850000000000000000e+02
7.124416783005290199e+02,7.262342942011091509e+02,9.208856553781697585e+02,1.002035504576302628e+03,7.699242988544992841e+02,6.925763867720888811e+02,1.937506361381638271e+03,7.952229580431685463e+02,9.523238182067871094e+00,-5.354431271553039551e-01,-1.070886254310607910e+00,2.860000000000000000e+02
6.753617839406870189e+02,8.206606807776097412e+02,9.166357110754706810e+02,9.436911012059208588e+02,7.583663703721049387e+02,7.436642488538127509e+02,1.850451703305974661e+03,8.427707221752334590e+02,9.523238182067871094e+00,-5.354431271553039551e-01,-1.070886254310607910e+00,2.870000000000000000e+02
5.439167328624462243e+02,9.586002312015552889e+02,9.887322492244820751e+02,9.403202857971809863e+02,8.086489598390198807e+02,8.628152139349003846e+02,1.656156341033685749e+03,9.582699496454188193e+02,9.523238182067871094e+00,-5.354431271553039551e-01,-1.070886254310607910e+00,2.880000000000000000e+02
4.920758266275333881e+02,9.411104591210805665e+02,1.027003417812415137e+03,9.843882775863639836e+02,8.434041253642863012e+02,8.808626166873509646e+02,1.591461805766342877e+03,9.729234553796486580e+02,9.523238182067871094e+00,-5.354431271553039551e-01,-1.070886254310607910e+00,2.890000000000000000e+02
5.830796435943921097e+02,7.848182171701919287e+02,9.673676223592974566e+02,1.004274575597288276e+03,8.058344249752481119e+02,7.703506661257069936e+02,1.713957218793413631e+03,8.571714523967020796e+02,9.523238182067871094e+00,-5.354431271553039551e-01,-1.070886254310607910e+00,2.900000000000000000e+02
6.824778840226717875e+02,6.987049201345907932e+02,8.809374440664741996e+02,9.632006556577034644e+02,7.396366326733350434e+02,6.816159233769685670e+02,1.822640673100067943e+03,7.622782296304303600e+02,9.523238182067871094e+00,-5.354431271553039551e-01,-1.070886254310607910e+00,2.910000000000000000e+02
6.443360780996372341e+02,7.954368026614029077e+02,8.753603128023805766e+02,9.093600539286253479e+02,7.280661206064214639e+02,7.338487349264396471e+02,1.736601801766082644e+03,8.109604934742383193e+02,9.523238182067871094e+00,-5.354431271553039551e-01,-1.070886254310607910e+00,2.920000000000000000e+02
5.131079707286626217e+02,9.363247368147131056e+02,9.462167862127880653e+02,9.087144277594306914e+02,7.781001062044451828e+02,8.502158442501804529e+02,1.544224196014074550e+03,9.273528640711920161e+02,9.523238182067871094e+00,-5.354431271553039551e-01,-1.070886254310607910e+00,2.930000000000000000e+02
4.623800741114973789e+02,9.226751045017808792e+02,9.843087784001072578e+02,9.535526011756373919e+02,8.117190371912292903e+02,8.640172973588687455e+02,1.480757203456319985e+03,9.421407960731303319e+02,9.523238182067871094e+00,-5.354431271553039551e-01,-1.070886254310607910e+00,2.940000000000000000e+02
5.549213277959643165e+02,7.692857625277611078e+02,9.272043840201531566e+02,9.730574557240761351e+02,7.744503986746967712e+02,7.492444760486305313e+02,1.603994768246375315e+03,8.267922062134748558e+02,9.523238182067871094e+00,-5.354431271553039551e-01,-1.070886254310607910e+00,2.950000000000000000e+02
6.559770800404730835e+02,6.830369199697961449e+02,8.446172419296181033e+02,9.314123950659377442e+02,7.097253880658354319e+02,6.574735019061099592e+02,1.714769502106544678e+03,7.325361460856220219e+02,9.523238182067871094e+00,-5.354431271553039551e-01,-1.070886254310607910e+00,2.960000000000000000e+02
6.196348752053454518e+02,7.764936031222077872e+02,8.411501879127699794e+02,8.777928955680945364e+02,6.984970069677910942e+02,7.096808711529938591e+02,1.631224321355861321e+03,7.812418628090745187e+02,9.523238182067871094e+00,-5.354431271553039551e-01,-1.070886254310607910e+00,2.970000000000000000e+02
4.903496003437758191e+02,9.121973891290035681e+02,9.122526018474090961e+02,8.784750581866392167e+02,7.485562976110832096e+02,8.290337774824984081e+02,1.439553512880207563e+03,8.975307037472266529e+02,9.523238182067871094e+00,-5.354431271553039551e-01,-1.070886254310607910e+00,2.980000000000000000e+02
4.413630810796676087e+02,8.931201656218163407e+02,9.513006037450031727e+02,9.244251914380292874e+02,7.841807380222089705e+02,8.456579905488943041e+02,1.375440151744529430e+03,9.131258749093485676e+02,9.523238182067871094e+00,-5.354431271553039551e-01,-1.070886254310607910e+00,2.990000000000000000e+02
5.355140686848062614e+02,7.358592927383506321e+02,8.965277621062068647e+02,9.429821529854307300e+02,7.498396006134862546e+02,7.306846495547379163e+02,1.498771495557775779e+03,7.989801906089451222e+02,9.523238182067871094e+00,-5.354431271553039551e-01,-1.070886254310607910e+00,3.000000000000000000e+02
6.389149245090593467e+02,6.480769048016190936e+02,8.153327936910027347e+02,8.984009904824451951e+02,6.866097325968476071e+02,6.366176310691334947e+02,1.610598072710337874e+03,7.049187211749722337e+02,9.523238182067871094e+00,-5.354431271553039551e-01,-1.070886254310607910e+00,3.010000000000000000e+02
6.059059450245295011e+02,7.417413439355732407e+02,8.111636248377162701e+02,8.417722687803325243e+02,6.760422952886219718e+02,6.869295187368134066e+02,1.527678863970395469e+03,7.526801899681631767e+02,9.523238182067871094e+00,-5.354431271553039551e-01,-1.070886254310607910e+00,3.020000000000000000e+02
4.797795972805324709e+02,8.786956394223925599e+02,8.813814612819624017e+02,8.406607427558847121e+02,7.274474120085760660e+02,8.051832793368994317e+02,1.335940486457155203e+03,8.681194934414634190e+02,9.523238182067871094e+00,-5.354431271553039551e-01,-1.070886254310607910e+00,3.030000000000000000e+02
4.327654874111685785e+02,8.613875144008452480e+02,9.207089636620257806e+02,8.860355046346194285e+02,7.643969884460893809e+02,8.209699058249643713e+02,1.272090983530462836e+03,8.839083312865368498e+02,9.523238182067871094e+00,-5.354431271553039551e-01,-1.070886254310607910e+00,3.040000000000000000e+02
5.280317832184955478e+02,7.051540248690889712e+02,8.661387709093833109e+02,9.053957496082985017e+02,7.305975571898234193e+02,7.063410326927842107e+02,1.396810037244431442e+03,7.708889573301712517e+02,9.523238182067871094e+00,-5.354431271553039551e-01,-1.070886254310607910e+00,3.050000000000000000e+02
6.321800328689751041e+02,6.164274376578287047e+02,7.847203939631981484e+02,8.629178704866390035e+02,6.683517362717939250e+02,6.142533149221198983e+02,1.511457927605682926e+03,6.782988830741742277e+02,9.523238182067871094e+00,-5.354431271553039551e-01,-1.070886254310607910e+00,3.060000000000000000e+02
5.991386334759372403e+02,7.077393400511900836e+02,7.819152143615428940e+02,8.077548132268893823e+02,6.597443245131144067e+02,6.659972534511580307e+02,1.432601637215608207e+03,7.272076850824250869e+02,9.523238182067871094e+00,-5.354431271553039551e-01,-1.070886254310607910e+00,3.070000000000000000e+02
4.718107829930377193e+02,8.431743160215737589e+02,8.550933253963376046e+02,8.055831335856419173e+02,7.121839402504047030e+02,7.831230332629165787e+02,1.244927103795649600e+03,8.426698021881893510e+02,9.523238182067871094e+00,-5.354431271553039551e-01,-1.070886254310607910e+00,3.080000000000000000e+02
4.229870795824754168e+02,8.273927408323834243e+02,8.956412377023189038e+02,8.491178069230954861e+02,7.477122152511183231e+02,7.962726447622990236e+02,1.183934121481550392e+03,8.569627700538403587e+02,9.523238182067871094e+00,-5.354431271553039551e-01,-1.070886254310607910e+00,3.090000000000000000e+02
5.167307437644558377e+02,6.763384582840008079e+02,8.392955009239158244e+02,8.695547673631590442e+02,7.110683390673657414e+02,6.794139204996572516e+02,1.310122878268477507e+03,7.417425142482461524e+02,9.523238182067871094e+00,-5.354431271553039551e-01,-1.070886254310607910e+00,3.100000000000000000e+02
6.200310448675227235e+02,5.945535599816284957e+02,7.559230192191207607e+02,8.313839881996464101e+02,6.464177346421274706e+02,5.858685034581721993e+02,1.426928409035710501e+03,6.478991823840697180e+02,9.523238182067871094e+00,-5.354431271553039551e-01,-1.070886254310607910e+00,3.110000000000000000e+02
5.867724229788000230e+02,6.912633536628127331e+02,7.527446012179134414e+02,7.806341971290494257e+02,6.364858563555171713e+02,6.375629941655533912e+02,1.350456032111658715e+03,6.977707013666877174e+02,9.523238182067871094e+00,-7.266727685928344727e-01,-1.032640218734741211e+00,3.120000000000000000e+02
4.596912264180864440e+02,8.288876534173723485e+02,8.259307388612578507e+02,7.813025400776641618e+02,6.885063900933637342e+02,7.576241494802961824e+02,1.164037865195110498e+03,8.164686468594154576e+02,9.523238182067871094e+00,-7.266727685928344727e-01,-1.032640218734741211e+00,3.130000000000000000e+02
4.114684445643506479e+02,8.129400715050724102e+02,8.667117246958878241e+02,8.267076346838366590e+02,7.245822681610952714e+02,7.757428477109533560e+02,1.103345302823567181e+03,8.347562580250814790e+02,9.523238182067871094e+00,-7.266727685928344727e-01,-1.032640218734741211e+00,3.140000000000000000e+02
5.064195713639128371e+02,6.600551358957163757e+02,8.118035570286010625e+02,8.475727653741887480e+02,6.892492742708782316e+02,6.620192015461507253e+02,1.230781647898635129e+03,7.216183586694751284e+02,9.523238182067871094e+00,-7.266727685928344727e-01,-1.032640218734741211e+00,3.150000000000000000e+02
6.120669366868314683e+02,5.745595455391521682e+02,7.292175813001231290e+02,8.073648046570342558e+02,6.250939183760710876e+02,5.682303170551349467e+02,1.349236768541995843e+03,6.262510331517369195e+02,9.523238182067871094e+00,-7.266727685928344727e-01,-1.032640218734741211e+00,3.160000000000000000e+02
5.820434435214265250e+02,6.674963469120448281e+02,7.233301590367591416e+02,7.538548426949600980e+02,6.129099864096169767e+02,6.189053796073603735e+02,1.274708970568579389e+03,6.722461478915356565e+02,9.523238182067871094e+00,-7.266727685928344727e-01,-1.032640218734741211e+00,3.170000000000000000e+02
4.574392840671644080e+02,8.047572060833372234e+02,7.919107370678721054e+02,7.538715939076355426e+02,6.606704675088076328e+02,7.390500425580139563e+02,1.090717877147792024e+03,7.876324573482161213e+02,9.523238182067871094e+00,-7.266727685928344727e-01,-1.032640218734741211e+00,3.180000000000000000e+02
4.094361604544174043e+02,7.917937420486487099e+02,8.305144549853612261e+02,8.004268470712340786e+02,6.940337220679211896e+02,7.570988682612551202e+02,1.032260766878971481e+03,8.047968997780626523e+02,9.523238182067871094e+00,-7.266727685928344727e-01,-1.032640218734741211e+00,3.190000000000000000e+02
5.029113929169543553e+02,6.410060493765377032e+02,7.769940756742253143e+02,8.220156490463159571e+02,6.593844949955528136e+02,6.424294200217191246e+02,1.160540907875780249e+03,6.925607174703036435e+02,9.523238182067871094e+00,-7.266727685928344727e-01,-1.032640218734741211e+00,3.200000000000000000e+02
6.070530377923132619e+02,5.546237806175522564e+02,6.975371049630120979e+02,7.817774885775652365e+02,5.971006342347718601e+02,5.482154427674431645e+02,1.278967595311143668e+03,5.995661571770979208e+02,9.523238182067871094e+00,-7.266727685928344727e-01,-1.032640218734741211e+00,3.210000000000000000e+02
5.758780001448394614e+02,6.459235648223148019e+02,6.957154523817771405e+02,7.282740261346480111e+02,5.860731131324209855e+02,5.992916262982762419e+02,1.205219494269382267e+03,6.487502071496346616e+02,9.523238182067871094e+00,-7.266727685928344727e-01,-1.032640218734741211e+00,3.220000000000000000e+02
4.499994872545212274e+02,7.815806236383396026e+02,7.692232068513258127e+02,7.278142011481468217e+02,6.360447295362937439e+02,7.191849248898288351e+02,1.022769344179556356e+03,7.671121275421137398e+02,9.523238182067871094e+00,-7.266727685928344727e-01,-1.032640218734741211e+00,3.230000000000000000e+02
4.014339619992970256e+02,7.642437490938573319e+02,8.120803992689470761e+02,7.728661785476469959e+02,6.739303840937391215e+02,7.361717715964259696e+02,9.653335395155663718e+02,7.862398573514219606e+02,9.523238182067871094e+00,-7.266727685928344727e-01,-1.032640218734741211e+00,3.240000000000000000e+02
4.964368868432211457e+02,6.060923903238872299e+02,7.603311568291246658e+02,7.927784883046915638e+02,6.431805810756704886e+02,6.209088834051508456e+02,1.094575660052287276e+03,6.745978481830752571e+02,9.523238182067871094e+00,-7.266727685928344727e-01,-1.032640218734741211e+00,3.250000000000000000e+02
6.035569568318533129e+02,5.143273604986279679e+02,6.800479241020184418e+02,7.511899221488929470e+02,5.815329395745720831e+02,5.265487109440291533e+02,1.215432890408825187e+03,5.806028714220410620e+02,9.523238182067871094e+00,-7.266727685928344727e-01,-1.032640218734741211e+00,3.260000000000000000e+02
5.747565195491333725e+02,6.060803032689145766e+02,6.760418345623438654e+02,6.961458775257960951e+02,5.699417697053831944e+02,5.771288007095317880e+02,1.145014757682511117e+03,6.278576350735529559e+02,9.523238182067871094e+00,-7.266727685928344727e-01,-1.032640218734741211e+00,3.270000000000000000e+02
4.496681353072781349e+02,7.467028042080855812e+02,7.478113265267602401e+02,6.944570055416697869e+02,6.209051047806315182e+02,6.970593328336835839e+02,9.646910322094117873e+02,7.452880958546193142e+02,9.523238182067871094e+00,-7.266727685928344727e-01,-1.032640218734741211e+00,3.280000000000000000e+02
4.002640008926100563e+02,7.359583887264925579e+02,7.911236360277362110e+02,7.401917064932422363e+02,6.602260601478774333e+02,7.160238203031403827e+02,9.079439494702965021e+02,7.655670567378547275e+02,9.523238182067871094e+00,-7.266727685928344727e-01,-1.032640218734741211e+00,3.290000000000000000e+02
4.927303065839369083e+02,5.840947581378532050e+02,7.421123736901135999e+02,7.630913003595487680e+02,6.294707618504544371e+02,6.037911186880155583e+02,1.038374163797030633e+03,6.557690443190440419e+02,9.523238182067871094e+00,-7.266727685928344727e-01,-1.032640218734741211e+00,3.300000000000000000e+02
5.968509157750158920e+02,4.958587322200328344e+02,6.648762942659741384e+02,7.256242787859591772e+02,5.673680879130188259e+02,5.109960145724544418e+02,1.162168808891787194e+03,5.623906400979467435e+02,9.523238182067871094e+00,-7.266727685928344727e-01,-1.032640218734741211e+00,3.310000000000000000e+02
5.670380929666862357e+02,5.870808111337537412e+02,6.623365052927038050e+02,6.745269481459763483e+02,5.557891243654230493e+02,5.604859306203434244e+02,1.095703705639636610e+03,6.089571147618553368e+02,9.523238182067871094e+00,-7.266727685928344727e-01,-1.032640218734741211e+00,3.320000000000000000e+02
4.430486548535773181e+02,7.262609490245813504e+02,7.335160258455434814e+02,6.755939832479707547e+02,6.054403681312542176e+02,6.779498347573426145e+02,9.189294628164207097e+02,7.254926019625745539e+02,9.446745872497558594e+00,-6.119350194931030273e-01,-1.109132170677185059e+00,3.330000000000000000e+02
3.940431395133709884e+02,7.170962845758731419e+02,7.742390714500652393e+02,7.224486635340399516e+02,6.412983291039272444e+02,6.953978549355379073e+02,8.644813953360862797e+02,7.453968009429700032e+02,9.446745872497558594e+00,-6.119350194931030273e-01,-1.109132170677185059e+00,3.340000000000000000e+02
4.849983048992653494e+02,5.685025878547676257e+02,7.212483958742595860e+02,7.456357166699017398e+02,6.077028792941855500e+02,5.835206566833439865e+02,9.959595377962687053e+02,6.360792309843818657e+02,9.446745872497558594e+00,-6.119350194931030273e-01,-1.109132170677185059e+00,3.350000000000000000e+02
5.876204508740120218e+02,4.813435935371344385e+02,6.406725421063238173e+02,7.086800725966459140e+02,5.455519201111819712e+02,4.914751881704505649e+02,1.120365274892668822e+03,5.438936627680741367e+02,9.446745872497558594e+00,-6.119350194931030273e-01,-1.109132170677185059e+00,3.360000000000000000e+02
5.571889646627387265e+02,5.717662268684834999e+02,6.372212503917035065e+02,6.580781404874796863e+02,5.346560421349167882e+02,5.407242227043388993e+02,1.055135080521475174e+03,5.911847531863859331e+02,9.446745872497558594e+00,-6.119350194931030273e-01,-1.109132170677185059e+00,3.370000000000000000e+02
4.318932304309055326e+02,7.111998672685331258e+02,7.090439087878876308e+02,6.589673952823650325e+02,5.830374797980512085e+02,6.584077719744891510e+02,8.803751789485977497e+02,7.068115347183629638e+02,9.446745872497558594e+00,-6.119350194931030273e-01,-1.109132170677185059e+00,3.380000000000000000e+02
3.808212312104442390e+02,7.029976208193183993e+02,7.499044572956408956e+02,7.053404253282933496e+02,6.168121532817385742e+02,6.784876620754148462e+02,8.277733064494823338e+02,7.247657715965688112e+02,9.446745872497558594e+00,-6.119350194931030273e-01,-1.109132170677185059e+00,3.390000000000000000e+02
4.712472144390631001e+02,5.536639647572483227e+02,6.964944305598983192e+02,7.282409437432943378e+02,5.830804695917395293e+02,5.700611555244868214e+02,9.603191791079589166e+02,6.141033580187649932e+02,9.446745872497558594e+00,-6.119350194931030273e-01,-1.109132170677185059e+00,3.400000000000000000e+02
5.756233676046904293e+02,4.643742358269555552e+02,6.162560748885698558e+02,6.909553170116123511e+02,5.226077746663358994e+02,4.791050005786710244e+02,1.084322314664823352e+03,5.216262953038640262e+02,9.446745872497558594e+00,-6.119350194931030273e-01,-1.109132170677185059e+00,3.410000000000000000e+02
5.476355388469164609e+02,5.532412105827679625e+02,6.138068016594988876e+02,6.401316463750335970e+02,5.129649516980316548e+02,5.270908110474629211e+02,1.018684502951087779e+03,5.687398758944691508e+02,9.446745872497558594e+00,-6.119350194931030273e-01,-1.109132170677185059e+00,3.420000000000000000e+02
4.247943671467073727e+02,6.920212030512993806e+02,6.864413999598873488e+02,6.415374845248734346e+02,5.617307321560256241e+02,6.430581612032910925e+02,8.428270033690641867e+02,6.839279553259366367e+02,9.446745872497558594e+00,-6.119350194931030273e-01,-1.109132170677185059e+00,3.430000000000000000e+02
3.766024424715869827e+02,6.839594497965008486e+02,7.285612093887357332e+02,6.885337201056463527e+02,5.963828172261128202e+02,6.605480364482355071e+02,7.882402456638374133e+02,7.019842190148337977e+02,9.446745872497558594e+00,-6.119350194931030273e-01,-1.109132170677185059e+00,3.440000000000000000e+02
4.693005195181540330e+02,5.362518118559455615e+02,6.775513419746239379e+02,7.105763227439529146e+02,5.639086476556985872e+02,5.477296480396180414e+02,9.195634060466545634e+02,5.921013330907044292e+02,9.446745872497558594e+00,-6.119350194931030273e-01,-1.109132170677185059e+00,3.450000000000000000e+02
5.737981961784607847e+02,4.487961488731598365e+02,5.990829554880983778e+02,6.707395123849273659e+02,5.034152909599506529e+02,4.531296562570460082e+02,1.045684183646837482e+03,4.996937076595022518e+02,9.446745872497558594e+00,-6.119350194931030273e-01,-1.109132170677185059e+00,3.460000000000000000e+02
5.443702801010076655e+02,5.364242209859985451e+02,5.958777904392372875e+02,6.169723875760682859e+02,4.928579846154461848e+02,5.016276406684082758e+02,9.832955308872042224e+02,5.458096078659436898e+02,9.446745872497558594e+00,-6.119350194931030273e-01,-1.109132170677185059e+00,3.470000000000000000e+02
4.198835241660272004e+02,6.707132944931727252e+02,6.668544772283203201e+02,6.159888178545152186e+02,5.426530204425944248e+02,6.217160311999214173e+02,8.095037440258311108e+02,6.615267609038164665e+02,9.446745872497558594e+00,-6.119350194931030273e-01,-1.109132170677185059e+00,3.480000000000000000e+02
3.695539909530489240e+02,6.585951994406423182e+02,7.092171925545408158e+02,6.614905831194046186e+02,5.810503294659574749e+02,6.439959671629039804e+02,7.552984896797133842e+02,6.837968699593438942e+02,9.446745872497558594e+00,-6.119350194931030273e-01,-1.109132170677185059e+00,3.490000000000000000e+02
4.593766063535804278e+02,5.088442337803389819e+02,6.597886080299867899e+02,6.835134966099067242e+02,5.518940302000410156e+02,5.352824797174835112e+02,8.866215200948645361e+02,5.794255269206805679e+02,9.446745872497558594e+00,-6.119350194931030273e-01,-1.109132170677185059e+00,3.500000000000000000e+02
5.619284911021750304e+02,4.192896471165367984e+02,5.821356123074656352e+02,6.454467037881186116e+02,4.919854578664599103e+02,4.437476341341607622e+02,1.013416752948483918e+03,4.898721436615742277e+02,9.446745872497558594e+00,-6.119350194931030273e-01,-1.109132170677185059e+00,3.510000000000000000e+02
5.324244213595447945e+02,5.045594036317197606e+02,5.798515871493145823e+02,5.945670877315278631e+02,4.813852347180873039e+02,4.932998946525112842e+02,9.525782246607413981e+02,5.364849636639773962e+02,9.446745872497558594e+00,-6.119350194931030273e-01,-1.109132170677185059e+00,3.520000000000000000e+02
4.078058625261037378e+02,6.389276810526280315e+02,6.536757198902196251e+02,5.966699346827517729e+02,5.330272574778500712e+02,6.124863686955650337e+02,7.810802018118411070e+02,6.530419927458242455e+02,9.446745872497558594e+00,-6.119350194931030273e-01,-1.109132170677185059e+00,3.530000000000000000e+02
3.556679381901121815e+02,6.295948931343373260e+02,6.987465827232372249e+02,6.450933708984157420e+02,5.734382964414398884e+02,6.337446741186213330e+02,7.295194536041381070e+02,6.755857341691662441e+02,9.446745872497558594e+00,-6.119350194931030273e-01,-1.109132170677185059e+00,3.540000000000000000e+02
4.436040539267269196e+02,4.828824864565031021e+02,6.482765755390064442e+02,6.697959032836006372e+02,5.434907617852222756e+02,5.250788493415820994e+02,8.633786856069782516e+02,5.683665890326228691e+02,9.446745872497558594e+00,-6.119350194931030273e-01,-1.109132170677185059e+00,3.550000000000000000e+02
5.463496010160088190e+02,3.965664140931221482e+02,5.666490906485269079e+02,6.339636952612490859e+02,4.809857513635579380e+02,4.341306590935346321e+02,9.924229518730717245e+02,4.750553532950943918e+02,9.446745872497558594e+00,-6.119350194931030273e-01,-1.109132170677185059e+00,3.560000000000000000e+02
5.187185265044026892e+02,4.867587960372002271e+02,5.616039283438440179e+02,5.845654269465012476e+02,4.691003996619110694e+02,4.842337732065207092e+02,9.333329690932005178e+02,5.215089819087734213e+02,9.446745872497558594e+00,-6.119350194931030273e-01,-1.109132170677185059e+00,3.570000000000000000e+02
3.962383860666159308e+02,6.258940694791344868e+02,6.353282950737484498e+02,5.873467672809929354e+02,5.207280508455296513e+02,6.040270343054726254e+02,7.626051600906357635e+02,6.407138655186427059e+02,9.484992027282714844e+00,-6.119350194931030273e-01,-1.147378087043762207e+00,3.580000000000000000e+02
3.461737257260683691e+02,6.185345152381232765e+02,6.809814245816669427e+02,6.364392999995834543e+02,5.598742137045264826e+02,6.258879356663965154e+02,7.113097882869333262e+02,6.641890782797418069e+02,9.484992027282714844e+00,-6.119350194931030273e-01,-1.147378087043762207e+00,3.590000000000000000e+02
4.356829896055569407e+02,4.729026999511661415e+02,6.305261111800136860e+02,6.629801621542064822e+02,5.270908514871334773e+02,5.175242992016792414e+02,8.462137379097403027e+02,5.554029482802216080e+02,9.484992027282714844e+00,-6.119350194931030273e-01,-1.147378087043762207e+00,3.600000000000000000e+02
5.381879369976377347e+02,3.896736346920661163e+02,5.487876519557466963e+02,6.297996490386431105e+02,4.621776677522866521e+02,4.261931570984597784e+02,9.773695871390518732e+02,4.604969199732950074e+02,9.484992027282714844e+00,-6.119350194931030273e-01,-1.147378087043762207e+00,3.610000000000000000e+02
5.082477573416108498e+02,4.834484625933619100e+02,5.433610859595792135e+02,5.816980683206420508e+02,4.489770559385069646e+02,4.746650063716369914e+02,9.203866393623611657e+02,5.054516283502525766e+02,9.484992027282714844e+00,-6.119350194931030273e-01,-1.147378087043762207e+00,3.620000000000000000e+02
3.829849272698047571e+02,6.243841158444920438e+02,6.160057215409178752e+02,5.834374046370649012e+02,4.995962361611673259e+02,5.918536179035145324e+02,7.510957886341202538e+02,6.221255917348098592e+02,9.484992027282714844e+00,-6.119350194931030273e-01,-1.147378087043762207e+00,3.630000000000000000e+02
3.313957647495117271e+02,6.179412725451475126e+02,6.612047630463493988e+02,6.310423579980270006e+02,5.387516193638730329e+02,6.119143359321242315e+02,7.008636906206374988e+02,6.438260337393949158e+02,9.484992027282714844e+00,-6.119350194931030273e-01,-1.147378087043762207e+00,3.640000000000000000e+02
4.215022035321744625e+02,4.722125395112379920e+02,6.127754426910469192e+02,6.573044127925531939e+02,5.086333557688267319e+02,5.035272682302747853e+02,8.364800468642351916e+02,5.361229643930273596e+02,9.484992027282714844e+00,-6.119350194931030273e-01,-1.147378087043762207e+00,3.650000000000000000e+02
5.268320471064653248e+02,3.854499484212719835e+02,5.349243436711476534e+02,6.237498164892094792e+02,4.480605304533673916e+02,4.123354883620340843e+02,9.676808381897571962e+02,4.434941902962309541e+02,9.484992027282714844e+00,-6.119350194931030273e-01,-1.147378087043762207e+00,3.660000000000000000e+02
5.006849450049339794e+02,4.738112691998758237e+02,5.327694262122386135e+02,5.736005602103105048e+02,4.376420611105277203e+02,4.597037305765479687e+02,9.104389328259567264e+02,4.895937177853193134e+02,9.484992027282714844e+00,-6.119350194931030273e-01,-1.147378087043762207e+00,3.670000000000000000e+02
3.777396543784998357e+02,6.125626460508283344e+02,6.071462053264258429e+02,5.729319109842399484e+02,4.884640234521139064e+02,5.758878148952717311e+02,7.396906242069380824e+02,6.072486400220223004e+02,9.484992027282714844e+00,-6.119350194931030273e-01,-1.147378087043762207e+00,3.680000000000000000e+02
3.263546345240320079e+02,6.072837039102887502e+02,6.537109611015257542e+02,6.196592727882816689e+02,5.275416099075009697e+02,5.960836835647132830e+02,6.881873261426517274e+02,6.310164724480346194e+02,9.484992027282714844e+00,-6.119350194931030273e-01,-1.147378087043762207e+00,3.690000000000000000e+02
4.158884757537744008e+02,4.615081020207435358e+02,6.067429236502284766e+02,6.456391897059802432e+02,4.986934664350628736e+02,4.869824906568901497e+02,8.225668951503903372e+02,5.247721859213706921e+02,9.484992027282714844e+00,-6.119350194931030273e-01,-1.147378087043762207e+00,3.700000000000000000e+02
5.208499016642890638e+02,3.726473139643640025e+02,5.293454450807184912e+02,6.104252845171649824e+02,4.397429192224662984e+02,3.931643394569327938e+02,9.533530575791664887e+02,4.318465380497509614e+02,9.484992027282714844e+00,-6.119350194931030273e-01,-1.147378087043762207e+00,3.710000000000000000e+02
4.940183596291899448e+02,4.589003762537686271e+02,5.264582653615725576e+02,5.574956495946098585e+02,4.306299387055478292e+02,4.392694057382104802e+02,8.967758133688912494e+02,4.784895142139575910e+02,9.484992027282714844e+00,-6.119350194931030273e-01,-1.147378087043762207e+00,3.720000000000000000e+02
3.701876015642337734e+02,5.938535361409012694e+02,6.007298250630192342e+02,5.541242980751849245e+02,4.836041373941843631e+02,5.583360991001682123e+02,7.278915546656062361e+02,5.999687443090151646e+02,9.484992027282714844e+00,-6.119350194931030273e-01,-1.147378087043762207e+00,3.730000000000000000e+02
3.186565113023825688e+02,5.812603515931405127e+02,6.491503355870227097e+02,5.979271692412658012e+02,5.258963959473185241e+02,5.828623481768008787e+02,6.763692216907511465e+02,6.287856663454076624e+02,9.484992027282714844e+00,-6.119350194931030273e-01,-1.147378087043762207e+00,3.740000000000000000e+02
4.092884845683875028e+02,4.288005622051277896e+02,6.049327620380645385e+02,6.207278668777362327e+02,4.995421611844503786e+02,4.757360642937928787e+02,8.093962502466310980e+02,5.249661261374712922e+02,9.484992027282714844e+00,-6.119350194931030273e-01,-1.147378087043762207e+00,3.750000000000000000e+02
5.159050063274044078e+02,3.379476203671074472e+02,5.290768633941843291e+02,5.843532453413499752e+02,4.414700059402748593e+02,3.823790061002655420e+02,9.394967991482990328e+02,4.310661972339512431e+02,9.484992027282714844e+00,-6.119350194931030273e-01,-1.147378087043762207e+00,3.760000000000000000e+02
4.907015133161476115e+02,4.242865126454198617e+02,5.253509686044781120e+02,5.340131325446272967e+02,4.323557332827331265e+02,4.295656129950948525e+02,8.838874740227038274e+02,4.750876920247974340e+02,9.484992027282714844e+00,-6.119350194931030273e-01,-1.147378087043762207e+00,3.770000000000000000e+02
3.681607183441665256e+02,5.587729804540940677e+02,5.964057383441540878e+02,5.351205768244763021e+02,4.842374063406823552e+02,5.487352325550018577e+02,7.171566560572537128e+02,5.932862378388599609e+02,9.484992027282714844e+00,-6.119350194931030273e-01,-1.147378087043762207e+00,3.780000000000000000e+02
3.168727664556645323e+02,5.482238078873779159e+02,6.400341920685314108e+02,5.824418094001448480e+02,5.233706637389186653e+02,5.706427323084717500e+02,6.686505202432599617e+02,6.185307857445222908e+02,9.484992027282714844e+00,-6.119350194931030273e-01,-1.147378087043762207e+00,3.790000000000000000e+02
4.064922929623862728e+02,4.018788503460382344e+02,5.907399730632969295e+02,6.077774027540872339e+02,4.925690003873387468e+02,4.608029064675356494e+02,8.056460593088413589e+02,5.121928076065159985e+02,9.484992027282714844e+00,-6.119350194931030273e-01,-1.147378087043762207e+00,3.800000000000000000e+02
5.122398873713536886e+02,3.173047601401340216e+02,5.103804575428221142e+02,5.744240724725968903e+02,4.300281688504765043e+02,3.671960327089109342e+02,9.397847574790648650e+02,4.173878284032252850e+02,9.484992027282714844e+00,-6.119350194931030273e-01,-1.147378087043762207e+00,3.810000000000000000e+02
4.880350130540609825e+02,4.091872770417248830e+02,5.027145773144657142e+02,5.274418837599660037e+02,4.157191663516132394e+02,4.143223642819211818e+02,8.865785685806331458e+02,4.599768126324634068e+02,9.484992027282714844e+00,-6.119350194931030273e-01,-1.147378087043762207e+00,3.820000000000000000e+02
3.683816103325661970e+02,5.529264602922776248e+02,5.707546360361011466e+02,5.311810652890999336e+02,4.615651135267908103e+02,5.312175642217916902e+02,7.201521707833162509e+02,5.743952973899358767e+02,9.484992027282714844e+00,-6.119350194931030273e-01,-1.147378087043762207e+00,3.830000000000000000e+02
3.206707985902321525e+02,5.541925028399346047e+02,6.137181547726213466e+02,5.803059206594771240e+02,4.968595930734954891e+02,5.509831597042793874e+02,6.711467794221534859e+02,5.954979067935273633e+02,9.484992027282714844e+00,-6.119350194931030273e-01,-1.147378087043762207e+00,3.840000000000000000e+02
4.138977865845663473e+02,4.130084578940659412e+02,5.666104142701951787e+02,6.065247177719211322e+02,4.665346304225386120e+02,4.416688269516234868e+02,8.080585182764043566e+02,4.878024473209297867e+02,9.484992027282714844e+00,-5.354431271553039551e-01,-1.109132170677185059e+00,3.850000000000000000e+02
5.233842982525238767e+02,3.228960037752112839e+02,4.891462718726834282e+02,5.723607318412396125e+02,4.064570202565955697e+02,3.494925845700490754e+02,9.426482385147828609e+02,3.943561568262302899e+02,9.484992027282714844e+00,-5.354431271553039551e-01,-1.109132170677185059e+00,3.860000000000000000e+02
5.020127029899595072e+02,4.053342964179028058e+02,4.826290796555695124e+02,5.233812503135632141e+02,3.941000892790034413e+02,3.973023995979528991e+02,8.901482804355910048e+02,4.390840646490323707e+02,9.484992027282714844e+00,-5.354431271553039551e-01,-1.109132170677185059e+00,3.870000000000000000e+02
3.822112772070104256e+02,5.421257183017078205e+02,5.508157075422641356e+02,5.259033850617852295e+02,4.425838160532293841e+02,5.160864846133044921e+02,7.241714284423796926e+02,5.561484374733845470e+02,9.484992027282714844e+00,-5.354431271553039551e-01,-1.109132170677185059e+00,3.880000000000000000e+02
3.310389256214257330e+02,5.382040662698709639e+02,5.955862882373330649e+02,5.748717545083418372e+02,4.821726534147601342e+02,5.395671092508055153e+02,6.744578178738156566e+02,5.806805852599936770e+02,9.484992027282714844e+00,-5.354431271553039551e-01,-1.109132170677185059e+00,3.890000000000000000e+02
4.203443490345671307e+02,3.930444180543781840e+02,5.519309613498044200e+02,6.000005761701177107e+02,4.551784093802270945e+02,4.320704245331871789e+02,8.094882932207838167e+02,4.755689947635401040e+02,9.484992027282714844e+00,-5.354431271553039551e-01,-1.109132170677185059e+00,3.900000000000000000e+02
5.281979991583502851e+02,3.033702176319202408e+02,4.767422646273407736e+02,5.631822264832007932e+02,3.952029869138204958e+02,3.373421883467526641e+02,9.427288471481151646e+02,3.822849859871639637e+02,9.484992027282714844e+00,-5.354431271553039551e-01,-1.109132170677185059e+00,3.910000000000000000e+02
5.071638286926463479e+02,3.904252998440788360e+02,4.702990894923932501e+02,5.118230450244154781e+02,3.810580896238679998e+02,3.807005729458978749e+02,8.907455762375029735e+02,4.258685786921487306e+02,9.484992027282714844e+00,-5.354431271553039551e-01,-1.109132170677185059e+00,3.920000000000000000e+02
3.871442227281804662e+02,5.309733985830025631e+02,5.380838762005223543e+02,5.133008190137916245e+02,4.278125168343831319e+02,4.964458744619405479e+02,7.245283131418982521e+02,5.426544732074617059e+02,9.484992027282714844e+00,-5.354431271553039551e-01,-1.109132170677185059e+00,3.930000000000000000e+02
