F3,F4,C3,C4,P3,P4,Cz,Pz,Accel_x,Accel_y,Accel_z,Sample
-1.818989403545856476e-12,2.364686224609613419e-11,3.183231456205248833e-12,9.094947017729282379e-12,-1.682565198279917240e-11,1.023181539494544268e-11,2.273736754432320595e-11,2.728484105318784714e-12,9.446745872497558594e+00,-7.266727685928344727e-01,-1.147378087043762207e+00,0.000000000000000000e+00
-3.774495194114797414e+02,-1.014555642009611347e+02,-2.124895883981723728e+02,-3.792497190137351026e+02,-2.600518577093162094e+02,-1.767154360354634264e+02,-7.223889301977487776e+02,-1.955411522966171560e+02,9.446745872497558594e+00,-7.266727685928344727e-01,-1.147378087043762207e+00,1.000000000000000000e+00
-8.816753637942433670e+02,-4.645133434131053036e+02,-5.611723650448375338e+02,-8.075678776581482907e+02,-6.088820175628620746e+02,-5.599109835189069599e+02,-1.445274498808023964e+03,-5.346032358727959490e+02,9.446745872497558594e+00,-7.266727685928344727e-01,-1.147378087043762207e+00,2.000000000000000000e+00
-1.403958097743945928e+03,-9.132827828263726815e+02,-9.820540224499757187e+02,-1.226794176696803106e+03,-1.019608505823124460e+03,-1.013585267817710019e+03,-2.147138802758903694e+03,-9.111271514554707665e+02,9.446745872497558594e+00,-7.266727685928344727e-01,-1.147378087043762207e+00,3.000000000000000000e+00
-1.725677247029233058e+03,-1.203060062073808012e+03,-1.319067619851192831e+03,-1.529034002909559604e+03,-1.389967100606733766e+03,-1.328159839875088437e+03,-2.736896206168709796e+03,-1.172792774549100841e+03,9.446745872497558594e+00,-7.266727685928344727e-01,-1.147378087043762207e+00,4.000000000000000000e+00
-1.839090310661826607e+03,-1.466903365220004616e+03,-1.556842829242843663e+03,-1.690505318533765831e+03,-1.678321966507702655e+03,-1.584442948218593756e+03,-3.252678461758062895e+03,-1.397590917546179753e+03,9.446745872497558594e+00,-7.266727685928344727e-01,-1.147378087043762207e+00,5.000000000000000000e+00
-1.914241589957746783e+03,-1.925410596752560423e+03,-1.824491677094360057e+03,-1.808434812311472569e+03,-1.959703637768478984e+03,-1.977952068029570910e+03,-3.761287097581256148e+03,-1.750440289036784407e+03,9.446745872497558594e+00,-7.266727685928344727e-01,-1.147378087043762207e+00,6.000000000000000000e+00
-2.132175010786892926e+03,-2.414609949451601096e+03,-2.158148221915499562e+03,-1.981694977142588868e+03,-2.284529853291639483e+03,-2.428328270833143506e+03,-4.316445396245104348e+03,-2.156697105179941445e+03,9.446745872497558594e+00,-7.266727685928344727e-01,-1.147378087043762207e+00,7.000000000000000000e+00
-2.589744355805370105e+03,-2.606933312772647696e+03,-2.409405227953186113e+03,-2.185836817251048615e+03,-2.557998038459514646e+03,-2.668383723905947136e+03,-5.115915914846100350e+03,-2.369000841502872390e+03,9.446745872497558594e+00,-7.266727685928344727e-01,-1.147378087043762207e+00,8.000000000000000000e+00
-3.236131686698286103e+03,-2.547075772494430112e+03,-2.469932228827883591e+03,-2.311043785254548311e+03,-2.675526948974209972e+03,-2.668707087892567870e+03,-6.372682075173496742e+03,-2.349208092789758666e+03,9.446745872497558594e+00,-7.266727685928344727e-01,-1.147378087043762207e+00,9.000000000000000000e+00
-3.920868695934799689e+03,-2.607196495471450817e+03,-2.465501932422092068e+03,-2.322694433444205060e+03,-2.720266522698111203e+03,-2.707614727155123546e+03,-7.821963268032295673e+03,-2.356977703749574175e+03,9.446745872497558594e+00,-7.266727685928344727e-01,-1.147378087043762207e+00,1.000000000000000000e+01
-4.575809577883805105e+03,-2.939383406245836341e+03,-2.585633260961601991e+03,-2.317238083234159603e+03,-2.860253531327475685e+03,-2.969068259029079400e+03,-8.889384882683245451e+03,-2.580735838917016736e+03,9.446745872497558594e+00,-7.266727685928344727e-01,-1.147378087043762207e+00,1.100000000000000000e+01
-5.219765144237320783e+03,-3.260323145546544310e+03,-2.794393315424874345e+03,-2.381951788578820015e+03,-3.075358539143812322e+03,-3.271639286274070400e+03,-9.583985527192655354e+03,-2.857839499636785149e+03,9.446745872497558594e+00,-7.266727685928344727e-01,-1.147378087043762207e+00,1.200000000000000000e+01
-5.696142511802165245e+03,-3.276411874446997444e+03,-2.892712111625332454e+03,-2.475897143041114759e+03,-3.191212599893117840e+03,-3.343372947421153185e+03,-1.031921540417810320e+04,-2.918874895382234172e+03,9.446745872497558594e+00,-7.266727685928344727e-01,-1.147378087043762207e+00,1.300000000000000000e+01
-5.774637519838648586e+03,-3.116981236920127685e+03,-2.835588809303020753e+03,-2.508242081470247285e+03,-3.176994474790604272e+03,-3.233913337571170814e+03,-1.086958329724836403e+04,-2.793401981649284608e+03,9.446745872497558594e+00,-7.266727685928344727e-01,-1.147378087043762207e+00,1.400000000000000000e+01
-5.745378557651656592e+03,-3.127981806958781817e+03,-2.780620936852700652e+03,-2.460719923583184936e+03,-3.174290495835502043e+03,-3.222525934886094092e+03,-1.100109303378363620e+04,-2.751266557791685045e+03,9.446745872497558594e+00,-7.266727685928344727e-01,-1.147378087043762207e+00,1.500000000000000000e+01
-6.248747278186359836e+03,-3.356625028030263366e+03,-2.828934795470000608e+03,-2.388025360029835610e+03,-3.243087974235966612e+03,-3.388523101405814486e+03,-1.158040620720431070e+04,-2.894792567064406285e+03,9.446745872497558594e+00,-7.266727685928344727e-01,-1.147378087043762207e+00,1.600000000000000000e+01
-7.091771179438959734e+03,-3.535674161068839567e+03,-2.921701277459011180e+03,-2.363803892655792424e+03,-3.324359562986038327e+03,-3.549177716363902618e+03,-1.298385760197127456e+04,-3.054614140765216689e+03,9.446745872497558594e+00,-7.266727685928344727e-01,-1.147378087043762207e+00,1.700000000000000000e+01
-7.268338077440287634e+03,-3.509080237931952070e+03,-2.971628659544587208e+03,-2.414729639136367041e+03,-3.391192388208853572e+03,-3.570469579890871046e+03,-1.385038025865827512e+04,-3.068397861874107548e+03,9.446745872497558594e+00,-7.266727685928344727e-01,-1.147378087043762207e+00,1.800000000000000000e+01
-6.741703595692834824e+03,-3.374079245353307670e+03,-2.926820762444157481e+03,-2.446308851150514784e+03,-3.408462222691641273e+03,-3.476882786775112436e+03,-1.383354506585005220e+04,-2.948286897880966080e+03,9.446745872497558594e+00,-7.266727685928344727e-01,-1.147378087043762207e+00,1.900000000000000000e+01
-6.687452723563683321e+03,-3.292048443550435877e+03,-2.797364441135753623e+03,-2.340787165370902585e+03,-3.316243887853168872e+03,-3.361700811914300175e+03,-1.471144562637888157e+04,-2.822402351288165391e+03,9.446745872497558594e+00,-7.266727685928344727e-01,-1.147378087043762207e+00,2.000000000000000000e+01
-7.300927593934629840e+03,-3.387793580730787653e+03,-2.734122166171265235e+03,-2.188611577068402767e+03,-3.239587677306173646e+03,-3.382986388148939113e+03,-1.631601581931483270e+04,-2.849428530040658643e+03,9.446745872497558594e+00,-7.266727685928344727e-01,-1.147378087043762207e+00,2.100000000000000000e+01
-7.468028988356911213e+03,-3.624827493094481270e+03,-2.857425971856649085e+03,-2.192006066542789085e+03,-3.368830566373662805e+03,-3.593878353412525939e+03,-1.623312363143208859e+04,-3.034996970409369624e+03,9.446745872497558594e+00,-7.266727685928344727e-01,-1.147378087043762207e+00,2.200000000000000000e+01
-7.201903655275622441e+03,-3.673987193354291776e+03,-2.957314809534012056e+03,-2.282722201223789853e+03,-3.511599959933111677e+03,-3.687873930799329173e+03,-1.557634746704617464e+04,-3.093010819618102687e+03,9.446745872497558594e+00,-7.266727685928344727e-01,-1.147378087043762207e+00,2.300000000000000000e+01
-7.598707340745970214e+03,-3.348810278395671958e+03,-2.771093282034835283e+03,-2.205895397039330419e+03,-3.339670857490083108e+03,-3.406545450271999471e+03,-1.770308571431727614e+04,-2.830490396183456596e+03,9.446745872497558594e+00,-7.266727685928344727e-01,-1.147378087043762207e+00,2.400000000000000000e+01
-8.101816895431999001e+03,-3.125164322112500486e+03,-2.537631004253769788e+03,-2.022249196609701812e+03,-3.109082679561543046e+03,-3.160427017225290001e+03,-2.017840115709124802e+04,-2.604652896554588551e+03,9.446745872497558594e+00,-7.266727685928344727e-01,-1.147378087043762207e+00,2.500000000000000000e+01
-7.502079782628372413e+03,-3.453001880938910745e+03,-2.643423504029635296e+03,-2.006199721020528614e+03,-3.275189949473976412e+03,-3.428236306796782173e+03,-1.856897740211260316e+04,-2.805091817349441044e+03,9.446745872497558594e+00,-7.266727685928344727e-01,-1.147378087043762207e+00,2.600000000000000000e+01
-7.326796453793340334e+03,-3.751040022096723078e+03,-2.811100318964296093e+03,-2.046815117270899918e+03,-3.476491996882021340e+03,-3.710260930441818800e+03,-1.739861308968686717e+04,-3.039787177952205639e+03,9.446745872497558594e+00,-7.266727685928344727e-01,-1.147378087043762207e+00,2.700000000000000000e+01
-9.256420406977935272e+03,-3.298525683236201985e+03,-2.548213222046373630e+03,-1.852388244889879161e+03,-3.123442227949373319e+03,-3.309510232822456601e+03,-2.276733605640589303e+04,-2.742887000519428057e+03,9.446745872497558594e+00,-7.266727685928344727e-01,-1.147378087043762207e+00,2.800000000000000000e+01
-9.888260365211315730e+03,-2.894721334726286386e+03,-2.305146089680087243e+03,-1.733233989463271200e+03,-2.879153918640191932e+03,-2.958991928834054306e+03,-2.567135017810302452e+04,-2.431976140859217594e+03,9.446745872497558594e+00,-7.266727685928344727e-01,-1.147378087043762207e+00,2.900000000000000000e+01
-4.501846413624787601e+03,-3.981427075162935580e+03,-3.012802738401689567e+03,-2.302209776833095930e+03,-3.968312712714902318e+03,-4.033001572758139901e+03,-1.168280779080210414e+04,-3.150916346392647029e+03,9.446745872497558594e+00,-7.266727685928344727e-01,-1.147378087043762207e+00,3.000000000000000000e+01
4.387588602265054760e+03,-6.178821182306964147e+03,-4.457296433033382527e+03,-3.358159257052459452e+03,-6.011169327084323413e+03,-6.175393679579519812e+03,1.329334123117570743e+04,-4.688022642772575637e+03,9.446745872497558594e+00,-8.414105772972106934e-01,-1.185624003410339355e+00,3.100000000000000000e+01
9.297900828116513367e+03,-7.527861082387646093e+03,-5.375108497503403669e+03,-4.002338896255337204e+03,-7.265812885288818507e+03,-7.510766009857388781e+03,2.771463259069582273e+04,-5.669236466285443385e+03,9.446745872497558594e+00,-8.414105772972106934e-01,-1.185624003410339355e+00,3.200000000000000000e+01
8.368168797616721349e+03,-7.278960490593384748e+03,-5.257392557777796355e+03,-3.926317973374144003e+03,-7.115836025150731075e+03,-7.316940969977506029e+03,2.503673833412422391e+04,-5.516115926601497449e+03,9.446745872497558594e+00,-8.414105772972106934e-01,-1.185624003410339355e+00,3.300000000000000000e+01
6.644522963265725593e+03,-6.646010729359782090e+03,-4.851002044828158432e+03,-3.676927594172908357e+03,-6.640082495002375254e+03,-6.739102965594736816e+03,1.922035690995257755e+04,-5.042024438042938527e+03,9.446745872497558594e+00,-8.414105772972106934e-01,-1.185624003410339355e+00,3.400000000000000000e+01
7.207122816722184325e+03,-6.655655878278304954e+03,-4.788715004873470207e+03,-3.631029921975652087e+03,-6.649193246857518716e+03,-6.733322609613098393e+03,1.978452053580319989e+04,-4.988988375965987871e+03,9.446745872497558594e+00,-8.414105772972106934e-01,-1.185624003410339355e+00,3.500000000000000000e+01
8.043691551334606629e+03,-6.954187627617049657e+03,-4.876720287012921290e+03,-3.603723759814227378e+03,-6.791075822582188266e+03,-6.970745407617186174e+03,2.139777166211213626e+04,-5.164346205105417539e+03,9.446745872497558594e+00,-8.414105772972106934e-01,-1.185624003410339355e+00,3.600000000000000000e+01
7.627411331371653432e+03,-6.962242246596949371e+03,-4.836883922505840928e+03,-3.482606867028590386e+03,-6.701844190090962002e+03,-6.956100057594519967e+03,1.919395761412249703e+04,-5.182437108015637023e+03,9.446745872497558594e+00,-8.414105772972106934e-01,-1.185624003410339355e+00,3.700000000000000000e+01
7.250655240763018810e+03,-6.764522126167267743e+03,-4.753757118266539692e+03,-3.433086890098238655e+03,-6.597166840831248919e+03,-6.800343972341373956e+03,1.679766650452050089e+04,-5.060083016518949080e+03,9.446745872497558594e+00,-8.414105772972106934e-01,-1.185624003410339355e+00,3.800000000000000000e+01
7.562752905780724177e+03,-6.604024253330845568e+03,-4.682236447627193229e+03,-3.449654010234713496e+03,-6.588281216964760461e+03,-6.681956097406970002e+03,1.688178946390050987e+04,-4.917317663723550140e+03,9.446745872497558594e+00,-8.414105772972106934e-01,-1.185624003410339355e+00,3.900000000000000000e+01
7.609665399349319159e+03,-6.512938564426593075e+03,-4.550464792247736113e+03,-3.346806777127159421e+03,-6.498267510230756670e+03,-6.571272462623178399e+03,1.666128671556742847e+04,-4.791075518068737438e+03,9.446745872497558594e+00,-8.414105772972106934e-01,-1.185624003410339355e+00,4.000000000000000000e+01
7.287665333905140869e+03,-6.532264537836817908e+03,-4.447444909879047373e+03,-3.166813483384792562e+03,-6.370826939368040257e+03,-6.536026272091867213e+03,1.464737932912370889e+04,-4.773167666101119721e+03,9.446745872497558594e+00,-8.414105772972106934e-01,-1.185624003410339355e+00,4.100000000000000000e+01
7.374015884945748439e+03,-6.636760329547397305e+03,-4.485063063376273931e+03,-3.110182883232108452e+03,-6.388968282268665462e+03,-6.627424391571060369e+03,1.318684867472910628e+04,-4.868019547820376829e+03,9.446745872497558594e+00,-8.414105772972106934e-01,-1.185624003410339355e+00,4.200000000000000000e+01
7.675605869369959692e+03,-6.587697010375272839e+03,-4.512779782249748678e+03,-3.154345128730752094e+03,-6.438119292023511662e+03,-6.626733049249675787e+03,1.324329633332285084e+04,-4.855715709279598741e+03,9.446745872497558594e+00,-8.414105772972106934e-01,-1.185624003410339355e+00,4.300000000000000000e+01
7.503106582343028094e+03,-6.313852437311019457e+03,-4.361868731331327581e+03,-3.113877553230455305e+03,-6.314909488259083446e+03,-6.398053840958482397e+03,1.258345956057192234e+04,-4.632617889795819792e+03,9.446745872497558594e+00,-8.414105772972106934e-01,-1.185624003410339355e+00,4.400000000000000000e+01
7.134197441483105649e+03,-6.132698567621987422e+03,-4.164672826186282691e+03,-2.965783008312530910e+03,-6.129356699521522387e+03,-6.195958414509532304e+03,1.025323616037098145e+04,-4.440655677570655826e+03,9.446745872497558594e+00,-8.414105772972106934e-01,-1.185624003410339355e+00,4.500000000000000000e+01
7.205406882532513919e+03,-6.249252766785438325e+03,-4.126352308757011997e+03,-2.845146381281204867e+03,-6.089442910740385742e+03,-6.249944770446960320e+03,8.715142577218441147e+03,-4.487253309777455797e+03,9.446745872497558594e+00,-8.414105772972106934e-01,-1.185624003410339355e+00,4.600000000000000000e+01
7.520928264973012119e+03,-6.398425793920087926e+03,-4.189985435276616954e+03,-2.816550629147920517e+03,-6.141265037846358609e+03,-6.375855221882082333e+03,9.350137289085087104e+03,-4.607867587200393245e+03,9.446745872497558594e+00,-8.414105772972106934e-01,-1.185624003410339355e+00,4.700000000000000000e+01
7.497531159058873527e+03,-6.271998197240011905e+03,-4.160828463969695804e+03,-2.819502546577490648e+03,-6.106884629471479457e+03,-6.293345608967917542e+03,8.975913644511671009e+03,-4.539170898441444479e+03,9.446745872497558594e+00,-8.414105772972106934e-01,-1.185624003410339355e+00,4.800000000000000000e+01
7.142711478461988008e+03,-5.981705706616930911e+03,-4.002166048724751818e+03,-2.772575986736975210e+03,-5.967853980185020191e+03,-6.049238457010935235e+03,5.251491945309309813e+03,-4.308505494256209204e+03,9.446745872497558594e+00,-8.414105772972106934e-01,-1.185624003410339355e+00,4.900000000000000000e+01
6.998116168701202696e+03,-5.852567752387438304e+03,-3.847197511789230703e+03,-2.655995875459023864e+03,-5.837624806808107678e+03,-5.900296290985715132e+03,3.293266382362511649e+03,-4.157204731789662219e+03,9.446745872497558594e+00,-8.414105772972106934e-01,-1.185624003410339355e+00,5.000000000000000000e+01
7.410566694573563836e+03,-5.959293141089395249e+03,-3.804166528361928613e+03,-2.531458191879037713e+03,-5.790906132952279222e+03,-5.946520843561955189e+03,9.713280906672051060e+03,-4.197651366489884822e+03,9.446745872497558594e+00,-8.414105772972106934e-01,-1.185624003410339355e+00,5.100000000000000000e+01
8.089856322647596244e+03,-6.061859554876826223e+03,-3.835594417452381549e+03,-2.478529830521626081e+03,-5.799468579461308764e+03,-6.031660479630473674e+03,2.113246379434971095e+04,-4.286336793174226841e+03,9.408499717712402344e+00,-6.501809358596801758e-01,-1.223870038986206055e+00,5.200000000000000000e+01
8.415938479202392045e+03,-5.939303664508883230e+03,-3.812621228882614105e+03,-2.484681875403954564e+03,-5.771633860307764735e+03,-5.957609043939747608e+03,2.723476107298147326e+04,-4.222321149328859065e+03,9.408499717712402344e+00,-6.501809358596801758e-01,-1.223870038986206055e+00,5.300000000000000000e+01
8.212710888728568534e+03,-5.670839234652481537e+03,-3.675642255541331906e+03,-2.449777047332578150e+03,-5.654096920696025336e+03,-5.733185155518980537e+03,2.516912517084883439e+04,-4.007186854785005380e+03,9.408499717712402344e+00,-6.501809358596801758e-01,-1.223870038986206055e+00,5.400000000000000000e+01
7.943362683577375719e+03,-5.530221835006926085e+03,-3.518437821194154367e+03,-2.329028095618730731e+03,-5.510927846071878776e+03,-5.568643886001378632e+03,2.172964437237639868e+04,-3.847161017304837060e+03,9.408499717712402344e+00,-6.501809358596801758e-01,-1.223870038986206055e+00,5.500000000000000000e+01
7.992885167714756790e+03,-5.620157242335376395e+03,-3.467134739616506977e+03,-2.202672986589821448e+03,-5.449346891682002024e+03,-5.599090797242981353e+03,2.137021150760268574e+04,-3.878108377007786657e+03,9.408499717712402344e+00,-6.501809358596801758e-01,-1.223870038986206055e+00,5.600000000000000000e+01
8.172952709975805192e+03,-5.725342331068095518e+03,-3.502262350027667708e+03,-2.160396638242744757e+03,-5.466856098246009424e+03,-5.692618979582710381e+03,2.155594645076738379e+04,-3.974145633843785618e+03,9.408499717712402344e+00,-6.501809358596801758e-01,-1.223870038986206055e+00,5.700000000000000000e+01
8.141062249769383016e+03,-5.602951781022483374e+03,-3.480555916443664955e+03,-2.172470680816095864e+03,-5.448060706967608894e+03,-5.627689225297724079e+03,2.013551068192184903e+04,-3.917558529146849651e+03,9.408499717712402344e+00,-6.501809358596801758e-01,-1.223870038986206055e+00,5.800000000000000000e+01
7.923136090547002823e+03,-5.322628293220517662e+03,-3.336379148893264301e+03,-2.134696043131781153e+03,-5.328918355919775422e+03,-5.404905173171113347e+03,1.875378984142625268e+04,-3.703449995115000092e+03,9.408499717712402344e+00,-6.501809358596801758e-01,-1.223870038986206055e+00,5.900000000000000000e+01
7.788295776080545693e+03,-5.176430681234432996e+03,-3.178072508245058089e+03,-2.016969917978142803e+03,-5.189980590751240925e+03,-5.248705381439351186e+03,1.838509273963165469e+04,-3.549108406991003903e+03,9.408499717712402344e+00,-6.501809358596801758e-01,-1.223870038986206055e+00,6.000000000000000000e+01
7.825959628478999548e+03,-5.267349548003166092e+03,-3.134164040463135279e+03,-1.899975347415743727e+03,-5.135332896474739755e+03,-5.285816753247519955e+03,1.765866734469676157e+04,-3.586051469740559696e+03,9.408499717712402344e+00,-6.501809358596801758e-01,-1.223870038986206055e+00,6.100000000000000000e+01
7.915849122277480092e+03,-5.371096907197845212e+03,-3.178174150013477174e+03,-1.864683141089896708e+03,-5.151484774142316382e+03,-5.374708509830599724e+03,1.615735724837610360e+04,-3.681110294934409922e+03,9.408499717712402344e+00,-6.501809358596801758e-01,-1.223870038986206055e+00,6.200000000000000000e+01
7.888380477586229063e+03,-5.247446248481555813e+03,-3.163583872436762249e+03,-1.880027380078499391e+03,-5.125867956947276980e+03,-5.302340068720970521e+03,1.504010788322286862e+04,-3.621567579938263407e+03,9.408499717712402344e+00,-6.501809358596801758e-01,-1.223870038986206055e+00,6.300000000000000000e+01
7.706279617218743624e+03,-4.972568623781150563e+03,-3.025335699771556392e+03,-1.846026925978158488e+03,-5.002900482950100923e+03,-5.076599965229819645e+03,1.467417479822389032e+04,-3.408797404520158580e+03,9.408499717712402344e+00,-6.501809358596801758e-01,-1.223870038986206055e+00,6.400000000000000000e+01
7.529713333911046902e+03,-4.831155048695351979e+03,-2.869498580806520295e+03,-1.731454278010816779e+03,-4.861751021619293169e+03,-4.914408048934656108e+03,1.406863311582486313e+04,-3.255323859788640675e+03,9.408499717712402344e+00,-6.501809358596801758e-01,-1.223870038986206055e+00,6.500000000000000000e+01
7.529436145213344389e+03,-4.919970814873997369e+03,-2.825925532680076685e+03,-1.615847283810963745e+03,-4.807256585270678443e+03,-4.943872409336167038e+03,1.257368451476067276e+04,-3.290608499836823285e+03,9.408499717712402344e+00,-6.501809358596801758e-01,-1.223870038986206055e+00,6.600000000000000000e+01
7.633409913482053526e+03,-5.015631289495356214e+03,-2.868394895927855941e+03,-1.579236538520246995e+03,-4.824201579357332776e+03,-5.028111517527909200e+03,1.102956571912715299e+04,-3.382268897258321431e+03,9.408499717712402344e+00,-6.501809358596801758e-01,-1.223870038986206055e+00,6.700000000000000000e+01
7.606152844264604937e+03,-4.886839962370555440e+03,-2.852065343696650871e+03,-1.592755225335749856e+03,-4.797500314896447890e+03,-4.952753206808307368e+03,1.059504577681646515e+04,-3.319075496339501115e+03,9.408499717712402344e+00,-6.501809358596801758e-01,-1.223870038986206055e+00,6.800000000000000000e+01
7.392137423636194399e+03,-4.613385651785705704e+03,-2.714935831138820504e+03,-1.560063168212167966e+03,-4.671466077115621374e+03,-4.722243590904901794e+03,1.066025653458495799e+04,-3.102754700758248418e+03,9.408499717712402344e+00,-6.501809358596801758e-01,-1.223870038986206055e+00,6.900000000000000000e+01
7.203956167233444830e+03,-4.473046398684709857e+03,-2.563040954689073260e+03,-1.450780778824099798e+03,-4.527577585771407939e+03,-4.556863724944299975e+03,9.689448234850113295e+03,-2.946307699067031081e+03,9.408499717712402344e+00,-6.501809358596801758e-01,-1.223870038986206055e+00,7.000000000000000000e+01
7.214705735098267724e+03,-4.558144800630818281e+03,-2.522493092247941149e+03,-1.341837883079114363e+03,-4.472160741342135225e+03,-4.589335958025076252e+03,8.277929928543058850e+03,-2.980607983984944894e+03,9.408499717712402344e+00,-6.501809358596801758e-01,-1.223870038986206055e+00,7.100000000000000000e+01
7.315774996959957207e+03,-4.651164620308378289e+03,-2.565154516627304019e+03,-1.310830544086590180e+03,-4.489564046463356135e+03,-4.679451185785585949e+03,8.096785706168001525e+03,-3.074029939607238248e+03,9.408499717712402344e+00,-6.501809358596801758e-01,-1.223870038986206055e+00,7.200000000000000000e+01
7.278267003756050144e+03,-4.526279520555104682e+03,-2.548565563565471621e+03,-1.328937102629772653e+03,-4.464063255773118726e+03,-4.607552633255510955e+03,7.817331140538152795e+03,-3.014269588177430705e+03,9.408499717712402344e+00,-6.501809358596801758e-01,-1.223870038986206055e+00,7.300000000000000000e+01
7.069198602169477454e+03,-4.259659924662794765e+03,-2.412652947997152296e+03,-1.300251554118181957e+03,-4.339406374478878206e+03,-4.379299820959514363e+03,5.403088079597802789e+03,-2.801185759136538763e+03,9.408499717712402344e+00,-6.501809358596801758e-01,-1.223870038986206055e+00,7.400000000000000000e+01
6.889884667266293945e+03,-4.123655294625509669e+03,-2.261740558576990225e+03,-1.193056649272552477e+03,-4.195876401705210810e+03,-4.216495108916926256e+03,4.317633831437252411e+03,-2.646618006530075490e+03,9.408499717712402344e+00,-6.501809358596801758e-01,-1.223870038986206055e+00,7.500000000000000000e+01
6.898773987185192709e+03,-4.210749027156330158e+03,-2.220381380709064615e+03,-1.083110602711582487e+03,-4.139576867640504133e+03,-4.247702605040067283e+03,1.002249572599816020e+04,-2.681496109355688986e+03,9.408499717712402344e+00,-6.501809358596801758e-01,-1.223870038986206055e+00,7.600000000000000000e+01
6.996231553064272703e+03,-4.304964082009182675e+03,-2.261983925370801444e+03,-1.049582232948713681e+03,-4.156679210258093008e+03,-4.331922343461286800e+03,2.000106865603077313e+04,-2.775463720858153465e+03,9.446745872497558594e+00,-6.884268522262573242e-01,-1.185624003410339355e+00,7.700000000000000000e+01
6.961183913149024193e+03,-4.179225803806335534e+03,-2.245598103321665349e+03,-1.066385011673145527e+03,-4.132715656740560007e+03,-4.257822250336634170e+03,2.560606249681162808e+04,-2.718195386081942615e+03,9.446745872497558594e+00,-6.884268522262573242e-01,-1.185624003410339355e+00,7.800000000000000000e+01
6.754713922706294397e+03,-3.909784572723810015e+03,-2.110569492083420300e+03,-1.038698305086432811e+03,-4.010280054565142564e+03,-4.036506954799384403e+03,2.439943291281539132e+04,-2.510598933714012219e+03,9.446745872497558594e+00,-6.884268522262573242e-01,-1.185624003410339355e+00,7.900000000000000000e+01
6.574853833450391903e+03,-3.773235475560240957e+03,-1.961527396346728437e+03,-9.350320741135415119e+02,-3.868163620062106929e+03,-3.883542659352505780e+03,2.205393308551316295e+04,-2.363051963032293315e+03,9.446745872497558594e+00,-6.884268522262573242e-01,-1.185624003410339355e+00,8.000000000000000000e+01
6.584339146048367184e+03,-3.865576858803493451e+03,-1.924616037209649676e+03,-8.320043768496107077e+02,-3.812133722607698019e+03,-3.920223841821265069e+03,2.195864465681111324e+04,-2.403533321660983802e+03,9.446745872497558594e+00,-6.884268522262573242e-01,-1.185624003410339355e+00,8.100000000000000000e+01
6.683871479550000004e+03,-3.969343311520116913e+03,-1.971997577740162797e+03,-8.082694327106769379e+02,-3.828301748731088992e+03,-4.007448248149597930e+03,2.167140840082060822e+04,-2.500474080808296094e+03,9.446745872497558594e+00,-6.884268522262573242e-01,-1.185624003410339355e+00,8.200000000000000000e+01
6.650677637850797510e+03,-3.853849503253637977e+03,-1.959231630177184798e+03,-8.343896469908668223e+02,-3.803126067680034794e+03,-3.938025726918328019e+03,1.998041029382525085e+04,-2.445436189356514660e+03,9.446745872497558594e+00,-6.884268522262573242e-01,-1.185624003410339355e+00,8.300000000000000000e+01
6.445394830161124446e+03,-3.593381038762211119e+03,-1.825958341100576490e+03,-8.125480298143293112e+02,-3.682108707559188588e+03,-3.721380503130391844e+03,1.908656507815205259e+04,-2.241548899899960361e+03,9.446745872497558594e+00,-6.884268522262573242e-01,-1.185624003410339355e+00,8.400000000000000000e+01
6.265602656514782211e+03,-3.462729767160671599e+03,-1.680858761491704627e+03,-7.112412474802595170e+02,-3.545707136802734567e+03,-3.570165703389465762e+03,1.935380519153566274e+04,-2.098433649584939303e+03,9.446745872497558594e+00,-6.884268522262573242e-01,-1.185624003410339355e+00,8.500000000000000000e+01
6.272873936851086910e+03,-3.555229315453914296e+03,-1.650944744665813687e+03,-6.079912295468484444e+02,-3.497079781808226926e+03,-3.606780988584189799e+03,1.863679723080615440e+04,-2.141436736222191030e+03,9.446745872497558594e+00,-6.884268522262573242e-01,-1.185624003410339355e+00,8.600000000000000000e+01
6.370443691876723278e+03,-3.654254162875266047e+03,-1.704748545152972383e+03,-5.820427720968782523e+02,-3.519084185279960820e+03,-3.694191371721036830e+03,1.684630202128816018e+04,-2.238732539185821224e+03,9.446745872497558594e+00,-6.884268522262573242e-01,-1.185624003410339355e+00,8.700000000000000000e+01
6.338009231483762960e+03,-3.534812997519572946e+03,-1.696010432875540118e+03,-6.063590091865098657e+02,-3.498785265361171696e+03,-3.625584779542318756e+03,1.590311673103809699e+04,-2.184794712427417380e+03,9.446745872497558594e+00,-6.884268522262573242e-01,-1.185624003410339355e+00,8.800000000000000000e+01
6.136320885648819967e+03,-3.274242398475888422e+03,-1.566427899592759786e+03,-5.862653833207232310e+02,-3.383356066099906002e+03,-3.410381916770802491e+03,1.586494518637238434e+04,-1.984237418909858206e+03,9.446745872497558594e+00,-6.884268522262573242e-01,-1.185624003410339355e+00,8.900000000000000000e+01
5.960639572423429854e+03,-3.143848929075728847e+03,-1.425699439926690047e+03,-4.897978706101530406e+02,-3.251464719165211136e+03,-3.260331453017437525e+03,1.529345867400410680e+04,-1.843846017712275170e+03,9.446745872497558594e+00,-6.884268522262573242e-01,-1.185624003410339355e+00,9.000000000000000000e+01
5.969740111199288549e+03,-3.235362918481236647e+03,-1.398813861983811421e+03,-3.914932363862253624e+02,-3.203456846296626281e+03,-3.295830976766178992e+03,1.415543396127964297e+04,-1.885932479757166675e+03,9.446745872497558594e+00,-6.884268522262573242e-01,-1.185624003410339355e+00,9.100000000000000000e+01
6.066415959895777632e+03,-3.337604487750707449e+03,-1.453114676808399054e+03,-3.701701438536583737e+02,-3.223005722522199903e+03,-3.380429568382848629e+03,1.319768297163649913e+04,-1.980340169892628637e+03,9.446745872497558594e+00,-6.884268522262573242e-01,-1.185624003410339355e+00,9.200000000000000000e+01
6.032928908772853902e+03,-3.228319512455406311e+03,-1.444214943107822364e+03,-3.998647487934622404e+02,-3.200176666949753781e+03,-3.310716369554277662e+03,1.227296370825524718e+04,-1.925435965624908476e+03,9.446745872497558594e+00,-6.884268522262573242e-01,-1.185624003410339355e+00,9.300000000000000000e+01
5.832395993125788664e+03,-2.977891518563701084e+03,-1.316172203373967477e+03,-3.840747404338117121e+02,-3.083422408951078978e+03,-3.096710303242452028e+03,1.141479763389966865e+04,-1.726315468093979689e+03,9.446745872497558594e+00,-6.884268522262573242e-01,-1.185624003410339355e+00,9.400000000000000000e+01
5.659153375755786328e+03,-2.851229843825084572e+03,-1.178775596911669254e+03,-2.888191702970907500e+02,-2.951552364942336681e+03,-2.947310311857463603e+03,1.117401954802289220e+04,-1.587575481171522370e+03,9.446745872497558594e+00,-6.884268522262573242e-01,-1.185624003410339355e+00,9.500000000000000000e+01
5.669438614307436183e+03,-2.943633917754107642e+03,-1.155367193760959253e+03,-1.911695401739289082e+02,-2.905889925822540590e+03,-2.982420531317500718e+03,1.077148777866481942e+04,-1.631566102766945733e+03,9.446745872497558594e+00,-6.884268522262573242e-01,-1.185624003410339355e+00,9.600000000000000000e+01
5.765795388356195872e+03,-3.049494214500231010e+03,-1.212515967255889336e+03,-1.730698661869528223e+02,-2.930174053343533615e+03,-3.067920006331017248e+03,9.073744131731329617e+03,-1.730065194652882383e+03,9.446745872497558594e+00,-6.884268522262573242e-01,-1.185624003410339355e+00,9.700000000000000000e+01
5.732499186401090810e+03,-2.944779080453403367e+03,-1.207039936539466908e+03,-2.068986450642032651e+02,-2.912074704926906179e+03,-3.000707002043619923e+03,7.516789778493926860e+03,-1.680929591364454609e+03,9.446745872497558594e+00,-6.884268522262573242e-01,-1.185624003410339355e+00,9.800000000000000000e+01
5.533350731194434047e+03,-2.695944884815328805e+03,-1.083700992643251993e+03,-1.938723974407403148e+02,-2.798162506467513595e+03,-2.789775154734172247e+03,7.895627697165533391e+03,-1.486688213499412086e+03,9.446745872497558594e+00,-6.884268522262573242e-01,-1.185624003410339355e+00,9.900000000000000000e+01
5.360958991262813470e+03,-2.568574825485479323e+03,-9.502109060630282329e+02,-1.019336489909637748e+02,-2.668265231935468364e+03,-2.644958223111942971e+03,8.079887746998880175e+03,-1.351254075864369952e+03,9.446745872497558594e+00,-6.884268522262573242e-01,-1.185624003410339355e+00,1.000000000000000000e+02
5.370340681005269289e+03,-2.659243845696228163e+03,-9.280361404142431638e+02,-9.385402156725831446e+00,-2.624801916306024395e+03,-2.686001058949564595e+03,5.537343705579694870e+03,-1.397819777516808244e+03,9.446745872497558594e+00,-6.884268522262573242e-01,-1.185624003410339355e+00,1.010000000000000000e+02
5.465206003581069126e+03,-2.761014011133607255e+03,-9.858703914920306488e+02,5.493891891674138606e+00,-2.650250451155747669e+03,-2.775196860707784253e+03,3.875647340794053889e+03,-1.497588354873506432e+03,9.446745872497558594e+00,-6.884268522262573242e-01,-1.185624003410339355e+00,1.020000000000000000e+02
5.431735359651203908e+03,-2.651372944355367508e+03,-9.832605175649341618e+02,-2.743943291474170110e+01,-2.631413064055703217e+03,-2.708387479283156608e+03,8.675246849454244511e+03,-1.447795525437858942e+03,9.446745872497558594e+00,-6.884268522262573242e-01,-1.185624003410339355e+00,1.030000000000000000e+02
5.234527942615095526e+03,-2.402550343543578037e+03,-8.629494963038714559e+02,-1.364427499229623209e+01,-2.516548090244970354e+03,-2.498972460907988534e+03,1.753711513713803288e+04,-1.252998104210897054e+03,9.484992027282714844e+00,-9.561483860015869141e-01,-1.147378087043762207e+00,1.040000000000000000e+02
5.065848891573736182e+03,-2.281883779963925008e+03,-7.292490098039052100e+02,7.475583795044985891e+01,-2.386737648860578702e+03,-2.359228365446122552e+03,2.222180202234336684e+04,-1.119200537577624345e+03,9.484992027282714844e+00,-9.561483860015869141e-01,-1.147378087043762207e+00,1.050000000000000000e+02
5.079378510642516630e+03,-2.380250574336304453e+03,-7.053061603099731656e+02,1.618303707509630840e+02,-2.343279137263033590e+03,-2.405667772606528160e+03,2.050142546971870252e+04,-1.168423765783330509e+03,9.484992027282714844e+00,-9.561483860015869141e-01,-1.147378087043762207e+00,1.060000000000000000e+02
5.177048994860431776e+03,-2.485743951817790730e+03,-7.637741047565041299e+02,1.735546616116162113e+02,-2.368546548259523661e+03,-2.499070879180508200e+03,1.796337468726788211e+04,-1.270581137469093846e+03,9.484992027282714844e+00,-9.561483860015869141e-01,-1.147378087043762207e+00,1.070000000000000000e+02
5.144977242862487401e+03,-2.377386821967787910e+03,-7.638791953189720516e+02,1.391928233962426020e+02,-2.352129635942756067e+03,-2.438764550464398781e+03,1.823939054451566335e+04,-1.225242263046055541e+03,9.484992027282714844e+00,-9.561483860015869141e-01,-1.147378087043762207e+00,1.080000000000000000e+02
4.949820206448876888e+03,-2.130165483903811037e+03,-6.459485084652906153e+02,1.497472537981875575e+02,-2.243812859525519798e+03,-2.238693091554882812e+03,1.894304324718071803e+04,-1.038819372971461235e+03,9.484992027282714844e+00,-9.561483860015869141e-01,-1.147378087043762207e+00,1.090000000000000000e+02
4.784538708477740329e+03,-2.010145736807699450e+03,-5.150750408344874813e+02,2.320693309241014504e+02,-2.121807306936118493e+03,-2.105297912126308802e+03,1.786910564877478828e+04,-9.134359032344214029e+02,9.484992027282714844e+00,-9.561483860015869141e-01,-1.147378087043762207e+00,1.100000000000000000e+02
4.800663692451535098e+03,-2.106836979403240093e+03,-4.959823690453040399e+02,3.123290832188586137e+02,-2.083706990003159262e+03,-2.151506413258203793e+03,1.641297049564267581e+04,-9.657818586539087846e+02,9.484992027282714844e+00,-9.561483860015869141e-01,-1.147378087043762207e+00,1.110000000000000000e+02
4.899254742025947053e+03,-2.211447452358993360e+03,-5.600852439457066794e+02,3.189181747417105726e+02,-2.111747997629450765e+03,-2.241949285228398821e+03,1.593440636709872706e+04,-1.066621060210411997e+03,9.484992027282714844e+00,-9.561483860015869141e-01,-1.147378087043762207e+00,1.120000000000000000e+02
4.868760368261473559e+03,-2.107056801917351095e+03,-5.658256283504451858e+02,2.822280136640192723e+02,-2.097638620581337818e+03,-2.180260716080589646e+03,1.574940791673214881e+04,-1.020588111261495214e+03,9.484992027282714844e+00,-9.561483860015869141e-01,-1.147378087043762207e+00,1.130000000000000000e+02
4.676493764845544320e+03,-1.868277361039980860e+03,-4.548998652011314334e+02,2.931127394751492830e+02,-1.991781339578228653e+03,-1.979455585192589297e+03,1.526888233820429741e+04,-8.354844838337457986e+02,9.484992027282714844e+00,-9.561483860015869141e-01,-1.147378087043762207e+00,1.140000000000000000e+02
4.511930941324426385e+03,-1.757485980439145351e+03,-3.310859490872107926e+02,3.771952573340340678e+02,-1.871364160026212630e+03,-1.844601270830949943e+03,1.472719576104978478e+04,-7.108834219244336055e+02,9.484992027282714844e+00,-9.561483860015869141e-01,-1.147378087043762207e+00,1.150000000000000000e+02
4.524690014417165003e+03,-1.861175792554337022e+03,-3.148854424775372536e+02,4.585752691132020118e+02,-1.833932708063302016e+03,-1.891150892318691149e+03,1.398468479937146185e+04,-7.633351194850265529e+02,9.484992027282714844e+00,-9.561483860015869141e-01,-1.147378087043762207e+00,1.160000000000000000e+02
4.619378605442140724e+03,-1.969649276487397401e+03,-3.779903072865472495e+02,4.635761570002214285e+02,-1.863384089507842418e+03,-1.985517679204706837e+03,1.294788924308681089e+04,-8.665013464175344780e+02,9.484992027282714844e+00,-9.561483860015869141e-01,-1.147378087043762207e+00,1.170000000000000000e+02
4.588451227777755776e+03,-1.867561998952649901e+03,-3.847418116295002619e+02,4.219833004107158558e+02,-1.852931123542876776e+03,-1.928178344610515524e+03,1.235130345169107750e+04,-8.253723609958037741e+02,9.484992027282714844e+00,-9.561483860015869141e-01,-1.147378087043762207e+00,1.180000000000000000e+02
4.398766512035983396e+03,-1.632754511319477388e+03,-2.799235177056907560e+02,4.262083962923334184e+02,-1.752844459469361027e+03,-1.728717223043705417e+03,1.241812077521114770e+04,-6.446749672309915695e+02,9.484992027282714844e+00,-9.561483860015869141e-01,-1.147378087043762207e+00,1.190000000000000000e+02
4.237521983206164805e+03,-1.528187348013967039e+03,-1.638510242906240819e+02,5.042946332188848828e+02,-1.638932214980444769e+03,-1.593675768778948623e+03,1.206388803121473393e+04,-5.225634824416902120e+02,9.484992027282714844e+00,-9.561483860015869141e-01,-1.147378087043762207e+00,1.200000000000000000e+02
4.253831117908351189e+03,-1.636561343890579337e+03,-1.528766447661773782e+02,5.815298965049823892e+02,-1.607037712457810358e+03,-1.641696137976508453e+03,1.079541533496703778e+04,-5.773966483332214921e+02,9.484992027282714844e+00,-9.561483860015869141e-01,-1.147378087043762207e+00,1.210000000000000000e+02
4.352253174501409376e+03,-1.745820408198408586e+03,-2.183432600687428931e+02,5.834676207936008723e+02,-1.639676350214356717e+03,-1.739256417288519970e+03,9.752349658290148000e+03,-6.840227439949221662e+02,9.484992027282714844e+00,-9.561483860015869141e-01,-1.147378087043762207e+00,1.220000000000000000e+02
4.324127190384957430e+03,-1.642988009168471763e+03,-2.260326485216910442e+02,5.382725705858938454e+02,-1.629730099019375302e+03,-1.685620421269388316e+03,9.656773436344505171e+03,-6.463267337611323455e+02,9.484992027282714844e+00,-9.561483860015869141e-01,-1.147378087043762207e+00,1.230000000000000000e+02
4.135765961246283041e+03,-1.406791368494934886e+03,-1.213195738661743235e+02,5.379713143812005001e+02,-1.528312154741818176e+03,-1.490830897750866825e+03,9.555939577541235849e+03,-4.680910784410307315e+02,9.484992027282714844e+00,-9.561483860015869141e-01,-1.147378087043762207e+00,1.240000000000000000e+02
3.975225540821641516e+03,-1.297123839599290022e+03,-4.296427346472228237e+00,6.126689374069137557e+02,-1.412294323265059120e+03,-1.361041762033135001e+03,8.718230337425309699e+03,-3.478359299092044239e+02,9.484992027282714844e+00,-9.561483860015869141e-01,-1.147378087043762207e+00,1.250000000000000000e+02
3.992459058359447226e+03,-1.398029121219085027e+03,8.689858782890041766e+00,6.901382574073795695e+02,-1.378558523758611045e+03,-1.412205740271587729e+03,7.802838443498989363e+03,-4.044453356035746765e+02,9.484992027282714844e+00,-9.561483860015869141e-01,-1.147378087043762207e+00,1.260000000000000000e+02
4.092584741007292905e+03,-1.505291659231651920e+03,-5.471584710153911146e+01,6.952184538937272009e+02,-1.411272769480528950e+03,-1.510773312062277000e+03,7.216868479677359574e+03,-5.134736530906038752e+02,9.484992027282714844e+00,-9.561483860015869141e-01,-1.147378087043762207e+00,1.270000000000000000e+02
4.068047529212875816e+03,-1.408586137897519166e+03,-6.186110141292010667e+01,6.525264234879032301e+02,-1.404396761655349565e+03,-1.460854497432087555e+03,6.527342412250731286e+03,-4.801204573916911613e+02,9.484992027282714844e+00,-9.561483860015869141e-01,-1.147378087043762207e+00,1.280000000000000000e+02
3.885572236792205331e+03,-1.179552196583715158e+03,4.127550302700274187e+01,6.520855716946061875e+02,-1.307512416926668720e+03,-1.275098372327508969e+03,6.019957389444785804e+03,-3.083195253002368190e+02,9.484992027282714844e+00,-9.561483860015869141e-01,-1.147378087043762207e+00,1.290000000000000000e+02
3.731023370041433736e+03,-1.073021530023324431e+03,1.549225619638018543e+02,7.247135253455726343e+02,-1.194953880321304950e+03,-1.154844155524076086e+03,6.141033673287671263e+03,-1.942062552081006288e+02,9.484992027282714844e+00,-9.561483860015869141e-01,-1.147378087043762207e+00,1.300000000000000000e+02
3.751185676776234686e+03,-1.176141577021950525e+03,1.629748920150495906e+02,7.984203556673219282e+02,-1.163569867242162218e+03,-1.210407032456362685e+03,5.553044290382007603e+03,-2.540489112837512948e+02,9.484992027282714844e+00,-9.561483860015869141e-01,-1.147378087043762207e+00,1.310000000000000000e+02
3.850840856786241602e+03,-1.286761711867400663e+03,9.421478998620477796e+01,7.977041596908929932e+02,-1.199228026175608647e+03,-1.309426090470210966e+03,3.329315715665958123e+03,-3.635651256676082994e+02,9.484992027282714844e+00,-9.561483860015869141e-01,-1.147378087043762207e+00,1.320000000000000000e+02
3.825303539155371254e+03,-1.191427709307337409e+03,8.361955321955338150e+01,7.494844350223793299e+02,-1.196039121003964283e+03,-1.260121913229452730e+03,2.489691989286107855e+03,-3.303385088669547258e+02,9.484992027282714844e+00,-9.561483860015869141e-01,-1.147378087043762207e+00,1.330000000000000000e+02
3.643576379966038985e+03,-9.617253150089509290e+02,1.853882678114614464e+02,7.467826762336135289e+02,-1.102908900178173099e+03,-1.074912337637410928e+03,6.541207001468446833e+03,-1.600744875810778467e+02,9.484992027282714844e+00,-9.561483860015869141e-01,-1.147378087043762207e+00,1.340000000000000000e+02
3.490818931488380258e+03,-8.571919130304327155e+02,2.968907394601083070e+02,8.187159819894750399e+02,-9.949140814806833077e+02,-9.530053642721813958e+02,1.309880344981934468e+04,-4.859743030261233798e+01,9.446745872497558594e+00,-7.649186849594116211e-01,-1.185624003410339355e+00,1.350000000000000000e+02
3.512144272375654509e+03,-9.656739590528686676e+02,3.009099530714556749e+02,8.891372557160157157e+02,-9.690904445670730638e+02,-1.006895951178393716e+03,1.623402787835616073e+04,-1.106490210531173943e+02,9.446745872497558594e+00,-7.649186849594116211e-01,-1.185624003410339355e+00,1.360000000000000000e+02
3.612267053560308341e+03,-1.080845009208524971e+03,2.283965171172230839e+02,8.832730432991102134e+02,-1.009081767276478786e+03,-1.108220105602005788e+03,1.481596585602505002e+04,-2.211542625588654118e+02,9.446745872497558594e+00,-7.649186849594116211e-01,-1.185624003410339355e+00,1.370000000000000000e+02
3.587286421641201741e+03,-9.886694534186090095e+02,2.146915304605299752e+02,8.323049604496372922e+02,-1.007804353235724193e+03,-1.064288240252773903e+03,1.309027757716913402e+04,-1.885663249946546784e+02,9.446745872497558594e+00,-7.649186849594116211e-01,-1.185624003410339355e+00,1.380000000000000000e+02
3.406041429239952777e+03,-7.641488288937321158e+02,3.117096367369840664e+02,8.291329042298402783e+02,-9.162682654731997900e+02,-8.829046830736106131e+02,1.341841362052040495e+04,-1.963729190624235343e+01,9.446745872497558594e+00,-7.649186849594116211e-01,-1.185624003410339355e+00,1.390000000000000000e+02
3.253214394341801381e+03,-6.665919048770351765e+02,4.175787474470544112e+02,8.989814789592710440e+02,-8.109156637527676139e+02,-7.615491410318777525e+02,1.389114024071500171e+04,9.044094616209622473e+01,9.446745872497558594e+00,-7.649186849594116211e-01,-1.185624003410339355e+00,1.400000000000000000e+02
3.274514379260919668e+03,-7.798512258546998055e+02,4.187947741555717585e+02,9.657444127248654695e+02,-7.868797340923615593e+02,-8.147612291266041211e+02,1.305108453963590364e+04,2.803661306701360445e+01,9.446745872497558594e+00,-7.649186849594116211e-01,-1.185624003410339355e+00,1.410000000000000000e+02
3.375500574121886530e+03,-8.964146497728097529e+02,3.461971195936148433e+02,9.581488266446995112e+02,-8.267668089554067592e+02,-9.157846458160479415e+02,1.208614199286642906e+04,-8.285453532458723203e+01,9.446745872497558594e+00,-7.649186849594116211e-01,-1.185624003410339355e+00,1.420000000000000000e+02
3.352036070503321753e+03,-8.042050866886283984e+02,3.312660142784634445e+02,9.069530079125433986e+02,-8.258589835270186086e+02,-8.722593825522717452e+02,1.196129409001913882e+04,-5.309906481901816733e+01,9.446745872497558594e+00,-7.649186849594116211e-01,-1.185624003410339355e+00,1.430000000000000000e+02
3.172293256447430394e+03,-5.789568058936984016e+02,4.252289524083062133e+02,9.012198681561076228e+02,-7.368204961377000473e+02,-6.931787476424005945e+02,1.197079275577056251e+04,1.105826492633268572e+02,9.446745872497558594e+00,-7.649186849594116211e-01,-1.185624003410339355e+00,1.440000000000000000e+02
3.020685286238565823e+03,-4.799646027893090832e+02,5.290239038014269681e+02,9.661884789562373044e+02,-6.341923300709677278e+02,-5.768319078888916920e+02,1.151438481206557481e+04,2.160633478753125019e+02,9.446745872497558594e+00,-7.649186849594116211e-01,-1.185624003410339355e+00,1.450000000000000000e+02
3.042460483559012573e+03,-5.931553689180072979e+02,5.296604910058376845e+02,1.029602481138535950e+03,-6.110935015243076123e+02,-6.354747047622922764e+02,1.097411099857004592e+04,1.519232551344684907e+02,9.446745872497558594e+00,-7.649186849594116211e-01,-1.185624003410339355e+00,1.460000000000000000e+02
3.142803783402736371e+03,-7.135307792191874796e+02,4.560350178894841520e+02,1.021387283718411709e+03,-6.511960358621518026e+02,-7.391519878164863258e+02,1.064650015103666738e+04,4.107602904571285762e+01,9.446745872497558594e+00,-7.649186849594116211e-01,-1.185624003410339355e+00,1.470000000000000000e+02
3.118920292240009076e+03,-6.289247203285881369e+02,4.394127387260141404e+02,9.702128358283225680e+02,-6.518703343958000005e+02,-6.960712065301750044e+02,1.028109263910493064e+04,7.054302475262829830e+01,9.446745872497558594e+00,-7.649186849594116211e-01,-1.185624003410339355e+00,1.480000000000000000e+02
2.941246601601575094e+03,-4.126952440343848139e+02,5.318765131712816583e+02,9.644591587987251842e+02,-5.657982692292389402e+02,-5.187780783440712185e+02,9.795238319060737922e+03,2.332083298325933356e+02,9.446745872497558594e+00,-7.649186849594116211e-01,-1.185624003410339355e+00,1.490000000000000000e+02
2.793992423772884649e+03,-3.208720025271841223e+02,6.334594227687221064e+02,1.030344242197919812e+03,-4.658982098552783100e+02,-4.067701034543565584e+02,9.525175126984429880e+03,3.373829246483901443e+02,9.446745872497558594e+00,-7.649186849594116211e-01,-1.185624003410339355e+00,1.500000000000000000e+02
2.819461304096563254e+03,-4.363796432431377070e+02,6.303461721539606515e+02,1.095157648568312652e+03,-4.445500176047994501e+02,-4.699202595855585969e+02,9.489022538820825503e+03,2.709625642195460387e+02,9.446745872497558594e+00,-7.649186849594116211e-01,-1.185624003410339355e+00,1.510000000000000000e+02
2.921438723147482960e+03,-5.545404255151902362e+02,5.531367040497934795e+02,1.087665545818840656e+03,-4.865397609269989516e+02,-5.766319629518402508e+02,9.032060950083303396e+03,1.560172956854694348e+02,9.446745872497558594e+00,-7.649186849594116211e-01,-1.185624003410339355e+00,1.520000000000000000e+02
2.899366835131111657e+03,-4.681202727351192152e+02,5.349019486690367557e+02,1.036856190745200365e+03,-4.905120089297433879e+02,-5.362075067348660014e+02,7.966179827123067298e+03,1.806742964243576353e+02,9.446745872497558594e+00,-7.649186849594116211e-01,-1.185624003410339355e+00,1.530000000000000000e+02
2.725828878054915549e+03,-2.542358006138456403e+02,6.269603206462898015e+02,1.031373849492975751e+03,-4.086206076052649223e+02,-3.616884842024833233e+02,7.602585855977320534e+03,3.400042062282946063e+02,9.446745872497558594e+00,-7.649186849594116211e-01,-1.185624003410339355e+00,1.540000000000000000e+02
2.583616665572224520e+03,-1.655408923149761904e+02,7.277714614421083752e+02,1.096158818407146100e+03,-3.123196520317362683e+02,-2.507765407022793624e+02,9.217449529689371047e+03,4.428374156328418394e+02,9.446745872497558594e+00,-7.649186849594116211e-01,-1.185624003410339355e+00,1.550000000000000000e+02
2.612400101074439590e+03,-2.795810543562365638e+02,7.233688030125567821e+02,1.158097501208981157e+03,-2.939704626643585925e+02,-3.126632621708376973e+02,1.175415873965558785e+04,3.757478170374142792e+02,9.446745872497558594e+00,-7.649186849594116211e-01,-1.185624003410339355e+00,1.560000000000000000e+02
2.716117236574482376e+03,-3.941586366561368777e+02,6.446057473322334772e+02,1.147574740238833328e+03,-3.393893053934762065e+02,-4.182499385329265351e+02,1.287341810607935076e+04,2.597726032676591785e+02,9.446745872497558594e+00,-7.649186849594116211e-01,-1.185624003410339355e+00,1.570000000000000000e+02
2.696413625850134849e+03,-3.095858014767773057e+02,6.239709294313515784e+02,1.094193346801330335e+03,-3.469160075129948382e+02,-3.793669039108517609e+02,1.220735622974915896e+04,2.828301249534224553e+02,9.446745872497558594e+00,-7.649186849594116211e-01,-1.185624003410339355e+00,1.580000000000000000e+02
2.526441841957825091e+03,-1.029679746726078520e+02,7.125240857702083304e+02,1.085265993821217307e+03,-2.677381818376059073e+02,-2.087930904016257045e+02,1.148295956849107824e+04,4.395935773494702516e+02,9.446745872497558594e+00,-7.649186849594116211e-01,-1.185624003410339355e+00,1.590000000000000000e+02
2.387389923121332686e+03,-1.882582134828135167e+01,8.099302341897237056e+02,1.145988345538733483e+03,-1.742347558063484030e+02,-1.025440860204248565e+02,1.152176623766172997e+04,5.389034124663012335e+02,9.446745872497558594e+00,-7.649186849594116211e-01,-1.185624003410339355e+00,1.600000000000000000e+02
2.418037923135319943e+03,-1.322912444858184244e+02,8.036159831400427720e+02,1.205867723605399078e+03,-1.601410908166815261e+02,-1.685919813183813858e+02,1.141438193853666235e+04,4.688192341768017286e+02,9.446745872497558594e+00,-7.649186849594116211e-01,-1.185624003410339355e+00,1.610000000000000000e+02
2.523359068582085456e+03,-2.483965124952705992e+02,7.241093632873180468e+02,1.196004118696225305e+03,-2.096881623085398587e+02,-2.771047451318718231e+02,1.066748505169422788e+04,3.516881463542995334e+02,9.446745872497558594e+00,-7.649186849594116211e-01,-1.185624003410339355e+00,1.620000000000000000e+02
2.505731467393470666e+03,-1.710005725116161557e+02,7.021233682866804884e+02,1.143387219871547131e+03,-2.185743060629824868e+02,-2.399551959209056804e+02,1.002780333996763329e+04,3.742343601193015274e+02,9.446745872497558594e+00,-7.649186849594116211e-01,-1.185624003410339355e+00,1.630000000000000000e+02
2.337085376557710333e+03,2.869070331228067516e+01,7.875643194105969087e+02,1.133624933036242510e+03,-1.389472841107385648e+02,-7.089234285124621238e+01,9.970622340006475497e+03,5.288424282032065094e+02,9.446745872497558594e+00,-7.649186849594116211e-01,-1.185624003410339355e+00,1.640000000000000000e+02
2.197232433449018572e+03,1.093967694682683032e+02,8.806703826767889041e+02,1.193026293575790987e+03,-4.621050749521646139e+01,3.382233272765006404e+01,9.948206906614261243e+03,6.244016467789688249e+02,9.446745872497558594e+00,-7.649186849594116211e-01,-1.185624003410339355e+00,1.650000000000000000e+02
2.225798211271798209e+03,-8.753680131943838205e+00,8.703076457892029794e+02,1.251576950971233600e+03,-3.389753578269574064e+01,-3.292135268287256622e+01,9.465275356381054735e+03,5.513166121099811789e+02,9.446745872497558594e+00,-7.649186849594116211e-01,-1.185624003410339355e+00,1.660000000000000000e+02
2.330017606715995498e+03,-1.315937463124887472e+02,7.880677261506853029e+02,1.238974603216981450e+03,-8.381847570298600658e+01,-1.419824941771867088e+02,8.786249644975840056e+03,4.331229554287274368e+02,9.446745872497558594e+00,-7.649186849594116211e-01,-1.185624003410339355e+00,1.670000000000000000e+02
2.313406680246031101e+03,-5.641383703235169378e+01,7.649072349868774836e+02,1.182382074980778270e+03,-9.214386884673194800e+01,-1.077583856592505072e+02,8.394650118747433226e+03,4.552818926222807931e+02,9.446745872497558594e+00,-7.649186849594116211e-01,-1.185624003410339355e+00,1.680000000000000000e+02
2.147425940120927407e+03,1.457539086892770683e+02,8.502029451775679263e+02,1.169604925394087331e+03,-1.327918597992947980e+01,5.575425757207813149e+01,8.295151389100401502e+03,6.090958671752646296e+02,9.446745872497558594e+00,-7.649186849594116211e-01,-1.185624003410339355e+00,1.690000000000000000e+02
2.011275261262928325e+03,2.251341632878643395e+02,9.433251563659950989e+02,1.227068059905120208e+03,7.793417563451203023e+01,1.556311182250178717e+02,8.089540080623510221e+03,7.042723530068146829e+02,9.446745872497558594e+00,-7.649186849594116211e-01,-1.185624003410339355e+00,1.700000000000000000e+02
2.044343634137489062e+03,1.006989413516066634e+02,9.325081825527267938e+02,1.282696881963051055e+03,8.925177311662469037e+01,8.709746651894965908e+01,7.610606711231672307e+03,6.316443213186780667e+02,9.446745872497558594e+00,-7.649186849594116211e-01,-1.185624003410339355e+00,1.710000000000000000e+02
2.153455438203292942e+03,-2.485742493480393023e+01,8.488249132647824808e+02,1.266687769179025054e+03,3.645321101395893493e+01,-2.252617299798839667e+01,7.122060775174311857e+03,5.127621790327739291e+02,9.446745872497558594e+00,-7.649186849594116211e-01,-1.185624003410339355e+00,1.720000000000000000e+02
2.141710824390463131e+03,5.253332452562244725e+01,8.225706252873869744e+02,1.208975034219661211e+03,2.113903509134797787e+01,9.202967004241145332e+00,6.779454742768090000e+03,5.312925140432762419e+02,9.446745872497558594e+00,-7.649186849594116211e-01,-1.185624003410339355e+00,1.730000000000000000e+02
1.980503023985727850e+03,2.540400451398195401e+02,9.033312809946573907e+02,1.196732504462059296e+03,9.258263791361787298e+01,1.675802941228653253e+02,6.440375269697771728e+03,6.801132454386797690e+02,9.446745872497558594e+00,-7.649186849594116211e-01,-1.185624003410339355e+00,1.740000000000000000e+02
1.848550999518968638e+03,3.294256393329524144e+02,9.923922325574203569e+02,1.252607761169574587e+03,1.809892896178253068e+02,2.616223320758349473e+02,6.163213245466256922e+03,7.718377281605544340e+02,9.446745872497558594e+00,-7.649186849594116211e-01,-1.185624003410339355e+00,1.750000000000000000e+02
1.884086391600864772e+03,2.050232627189825507e+02,9.799175774625255144e+02,1.304168029225037571e+03,1.930446553252354533e+02,1.889621958231628014e+02,6.065507898615829617e+03,6.975530921155345823e+02,9.446745872497558594e+00,-7.649186849594116211e-01,-1.185624003410339355e+00,1.760000000000000000e+02
1.993752012160824052e+03,8.253053205808419079e+01,8.966676825416980137e+02,1.285244217492120697e+03,1.402106987045319784e+02,7.773445526688419704e+01,5.663788903327302251e+03,5.770963958788661330e+02,9.446745872497558594e+00,-7.649186849594116211e-01,-1.185624003410339355e+00,1.770000000000000000e+02
1.982435334510768371e+03,1.579739671050424477e+02,8.711565495350996571e+02,1.227224731562827401e+03,1.231596280606204346e+02,1.092877115032533766e+02,4.664810770591349865e+03,5.935032695209270059e+02,9.446745872497558594e+00,-7.649186849594116211e-01,-1.185624003410339355e+00,1.780000000000000000e+02
1.823289905371149871e+03,3.535396894134673857e+02,9.522100647923352881e+02,1.215716512949235948e+03,1.920201832321106394e+02,2.676689148684413340e+02,4.286466768333779328e+03,7.397805107922326897e+02,9.446745872497558594e+00,-7.649186849594116211e-01,-1.185624003410339355e+00,1.790000000000000000e+02
1.694568649692724648e+03,4.270541396820058253e+02,1.041742745934615414e+03,1.273576134885979627e+03,2.760502330809390514e+02,3.615127605535953990e+02,5.905052795476227402e+03,8.280482105708179006e+02,9.446745872497558594e+00,-7.649186849594116211e-01,-1.185624003410339355e+00,1.800000000000000000e+02
1.732924446266727500e+03,3.049705799210923942e+02,1.030211855116099287e+03,1.329490275840245886e+03,2.823398252883844179e+02,2.878031509672755419e+02,8.503213100215338272e+03,7.498618497703209869e+02,9.446745872497558594e+00,-7.266727685928344727e-01,-1.223870038986206055e+00,1.810000000000000000e+02
1.844785666427710566e+03,1.829883462946372674e+02,9.474223427199121943e+02,1.314266964092146736e+03,2.259814893564439444e+02,1.739873617156049477e+02,9.648060531160712344e+03,6.271091943486835589e+02,9.446745872497558594e+00,-7.266727685928344727e-01,-1.223870038986206055e+00,1.820000000000000000e+02
1.835975499407561074e+03,2.568538117752700600e+02,9.207702595054679477e+02,1.254574477763604591e+03,2.089979439657436160e+02,2.026593519446191749e+02,8.965805203075406098e+03,6.431848386387828214e+02,9.446745872497558594e+00,-7.266727685928344727e-01,-1.223870038986206055e+00,1.830000000000000000e+02
1.679445713142990826e+03,4.517621738764069050e+02,9.994011907972653717e+02,1.236580283309146580e+03,2.781387388191574246e+02,3.594960917533376232e+02,8.270598883098964507e+03,7.886317112799893039e+02,9.446745872497558594e+00,-7.266727685928344727e-01,-1.223870038986206055e+00,1.840000000000000000e+02
1.551786991333370679e+03,5.237204415820528993e+02,1.086781045774365793e+03,1.287770741870727761e+03,3.604750649902880468e+02,4.516771249563466881e+02,8.375082688155407595e+03,8.743297757775030732e+02,9.446745872497558594e+00,-7.266727685928344727e-01,-1.223870038986206055e+00,1.850000000000000000e+02
1.588898624745020243e+03,3.963969394595433187e+02,1.073942824010736331e+03,1.338736258070579424e+03,3.651875889128743893e+02,3.739355179935655542e+02,8.268616785840353259e+03,7.936917915946683024e+02,9.446745872497558594e+00,-7.266727685928344727e-01,-1.223870038986206055e+00,1.860000000000000000e+02
1.698924144775437526e+03,2.673767327032414869e+02,9.894081208368311309e+02,1.319413345249689883e+03,3.088182804174603007e+02,2.554866240790252050e+02,7.493492351899381902e+03,6.698149403927000094e+02,9.446745872497558594e+00,-7.266727685928344727e-01,-1.223870038986206055e+00,1.870000000000000000e+02
1.690152825455803395e+03,3.350683912583822348e+02,9.594151153848506510e+02,1.257350601889532300e+03,2.913391833154253163e+02,2.821954437559243161e+02,6.911938820264491369e+03,6.847748705575017993e+02,9.446745872497558594e+00,-7.266727685928344727e-01,-1.223870038986206055e+00,1.880000000000000000e+02
1.536067117625855644e+03,5.253284665478358875e+02,1.033371938710421546e+03,1.240033672948724416e+03,3.578525576405982065e+02,4.390471708572363241e+02,6.920355427617676469e+03,8.287212575395651584e+02,9.446745872497558594e+00,-7.266727685928344727e-01,-1.223870038986206055e+00,1.890000000000000000e+02
1.411881857384433715e+03,5.958179128212400428e+02,1.115279465771548985e+03,1.292616061153170449e+03,4.369865107505934247e+02,5.308123397862173078e+02,6.854927822585960712e+03,9.145880248810444755e+02,9.446745872497558594e+00,-7.266727685928344727e-01,-1.223870038986206055e+00,1.900000000000000000e+02
1.452491333205104638e+03,4.712146852353607756e+02,1.097201799466051398e+03,1.342294079446987780e+03,4.402906724338736240e+02,4.526534558241637569e+02,6.352665548523716097e+03,8.366402245103754467e+02,9.446745872497558594e+00,-7.266727685928344727e-01,-1.223870038986206055e+00,1.910000000000000000e+02
1.566115351869664664e+03,3.451789127563306465e+02,1.010681829775687220e+03,1.319766443221845293e+03,3.846709322977362717e+02,3.341437706554152101e+02,5.802551682200687537e+03,7.155283289748908828e+02,9.446745872497558594e+00,-7.266727685928344727e-01,-1.223870038986206055e+00,1.920000000000000000e+02
1.560763001662730858e+03,4.112240732776176628e+02,9.841590008415951161e+02,1.255655749888703212e+03,3.685355515639712394e+02,3.585841292958161830e+02,5.456078951566715659e+03,7.307161792083993532e+02,9.446745872497558594e+00,-7.266727685928344727e-01,-1.223870038986206055e+00,1.930000000000000000e+02
1.408950431226769069e+03,5.955523061611675075e+02,1.063808317876850197e+03,1.237518614536209498e+03,4.353219464078488272e+02,5.108317420529810988e+02,5.217891940990287367e+03,8.726489736590651773e+02,9.446745872497558594e+00,-7.266727685928344727e-01,-1.223870038986206055e+00,1.940000000000000000e+02
1.285549526915336173e+03,6.591238861557185373e+02,1.147891158593592081e+03,1.288580886844372799e+03,5.134886657596575787e+02,6.006450992527761628e+02,5.055639989252759733e+03,9.563500124295783280e+02,9.446745872497558594e+00,-7.266727685928344727e-01,-1.223870038986206055e+00,1.950000000000000000e+02
1.325830647765878894e+03,5.286645951150730980e+02,1.127677552859798652e+03,1.336882214901947009e+03,5.155222509416512366e+02,5.256119379061046857e+02,4.829460938586071279e+03,8.773195308295976247e+02,9.446745872497558594e+00,-7.266727685928344727e-01,-1.223870038986206055e+00,1.960000000000000000e+02
1.438240410238750883e+03,3.997479268262818550e+02,1.038324888588282192e+03,1.315669429747355935e+03,4.586233894677793614e+02,4.106225277636335704e+02,4.273634483989108048e+03,7.557992778752718550e+02,9.446745872497558594e+00,-7.266727685928344727e-01,-1.223870038986206055e+00,1.970000000000000000e+02
1.431759741434635544e+03,4.672639033122013643e+02,1.009456012124533117e+03,1.254627259302734728e+03,4.406917610733148649e+02,4.341824622657195505e+02,3.659632569520570541e+03,7.700739830816810354e+02,9.446745872497558594e+00,-7.266727685928344727e-01,-1.223870038986206055e+00,1.980000000000000000e+02
1.281472154377713196e+03,6.547629245505759172e+02,1.085642670207340416e+03,1.237573654026086842e+03,5.049484524195100903e+02,5.817178446170232746e+02,3.562248171052768157e+03,9.096229953789143110e+02,9.446745872497558594e+00,-7.266727685928344727e-01,-1.223870038986206055e+00,1.990000000000000000e+02
1.163808537638352391e+03,7.190473022909891370e+02,1.165789992207864998e+03,1.287209698441183264e+03,5.794527531058542991e+02,6.651077017711995722e+02,3.675083191444612567e+03,9.892485640562049412e+02,9.446745872497558594e+00,-7.266727685928344727e-01,-1.223870038986206055e+00,2.000000000000000000e+02
1.211828057320791231e+03,5.871709594526137153e+02,1.143291954962338423e+03,1.334899590184961198e+03,5.758016897678962778e+02,5.829012114613842641e+02,3.178136611439684202e+03,9.051392549195211359e+02,9.446745872497558594e+00,-7.266727685928344727e-01,-1.223870038986206055e+00,2.010000000000000000e+02
1.330206198327778111e+03,4.574941376211327224e+02,1.052480842187308099e+03,1.315008715722474335e+03,5.121228098308806693e+02,4.621337173623514900e+02,2.381864753391453633e+03,7.789605964928955473e+02,9.446745872497558594e+00,-7.266727685928344727e-01,-1.223870038986206055e+00,2.020000000000000000e+02
1.326627512661271794e+03,5.242193777948307343e+02,1.020875630499799172e+03,1.254217445716694783e+03,4.895721721830245770e+02,4.833923021579657870e+02,2.245544280808971962e+03,7.903858266072825245e+02,9.446745872497558594e+00,-7.266727685928344727e-01,-1.223870038986206055e+00,2.030000000000000000e+02
1.177198625114340757e+03,7.087319141451657742e+02,1.094063210877003712e+03,1.234527271097243101e+03,5.529826587230081714e+02,6.303618718102502498e+02,2.351967924802732341e+03,9.292472193804987910e+02,9.446745872497558594e+00,-7.266727685928344727e-01,-1.223870038986206055e+00,2.040000000000000000e+02
1.059156326341844760e+03,7.691780343847310633e+02,1.173446800538334628e+03,1.280677805689351771e+03,6.285813175919693094e+02,7.122014515438881972e+02,1.640090162362248520e+03,1.009688657893269465e+03,9.446745872497558594e+00,-7.266727685928344727e-01,-1.223870038986206055e+00,2.050000000000000000e+02
1.106152079764113296e+03,6.349598914400141894e+02,1.152137111916165395e+03,1.326128565888163394e+03,6.262631292029309407e+02,6.285887983828315555e+02,1.032004189378659248e+03,9.271148113410913538e+02,9.446745872497558594e+00,-7.266727685928344727e-01,-1.223870038986206055e+00,2.060000000000000000e+02
1.224327742387242324e+03,5.038038141620650094e+02,1.062040616994380343e+03,1.305364609225229287e+03,5.640370782931804570e+02,5.085634601843548808e+02,2.542707583363710910e+03,8.023067467574846887e+02,9.446745872497558594e+00,-7.266727685928344727e-01,-1.223870038986206055e+00,2.070000000000000000e+02
1.222500748906939407e+03,5.694381268419519984e+02,1.029563763155053948e+03,1.245640661349855691e+03,5.415685781426882386e+02,5.310709590427472904e+02,5.666335367998859510e+03,8.135221196633242471e+02,9.446745872497558594e+00,-7.649186849594116211e-01,-1.223870038986206055e+00,2.080000000000000000e+02
1.076036388165094650e+03,7.557047765189965958e+02,1.101293905656223160e+03,1.229764753626813217e+03,6.014587789865049672e+02,6.777952129073296419e+02,7.596202476500428020e+03,9.499634544643940899e+02,9.446745872497558594e+00,-7.649186849594116211e-01,-1.223870038986206055e+00,2.090000000000000000e+02
9.605443258804452853e+02,8.211530284399586890e+02,1.180018769585909922e+03,1.280435982117676758e+03,6.714948192821743760e+02,7.594229392699139680e+02,7.257784640777937966e+03,1.027533613938256167e+03,9.446745872497558594e+00,-7.649186849594116211e-01,-1.223870038986206055e+00,2.100000000000000000e+02
1.008985879299240878e+03,6.900334482188768561e+02,1.158925663322316723e+03,1.327930740497752140e+03,6.658011579617191273e+02,6.770757165580007495e+02,6.293900319897704321e+03,9.439330434902394700e+02,9.446745872497558594e+00,-7.649186849594116211e-01,-1.223870038986206055e+00,2.110000000000000000e+02
1.128138853812363777e+03,5.551742126528290555e+02,1.068548386442616447e+03,1.307031387811801778e+03,6.031857522213754237e+02,5.579018597651097480e+02,5.980783645476672973e+03,8.194846490065610851e+02,9.446745872497558594e+00,-7.649186849594116211e-01,-1.223870038986206055e+00,2.120000000000000000e+02
1.128214002532654376e+03,6.116270771850740857e+02,1.034282925816733041e+03,1.247221798830398257e+03,5.804114321203237523e+02,5.791255861614904461e+02,5.848906352503215203e+03,8.300455278905512841e+02,9.446745872497558594e+00,-7.649186849594116211e-01,-1.223870038986206055e+00,2.130000000000000000e+02
9.858980822259518391e+02,7.883165416158044536e+02,1.103633683169333835e+03,1.230433316457809269e+03,6.389188551009028743e+02,7.231690671166620632e+02,5.492784066614893163e+03,9.641474234844752118e+02,9.446745872497558594e+00,-7.649186849594116211e-01,-1.223870038986206055e+00,2.140000000000000000e+02
8.767535958684816251e+02,8.477210178413140511e+02,1.180995725915889125e+03,1.276682936993483963e+03,7.080437378762080698e+02,8.009196441510259774e+02,5.273134187815301630e+03,1.039200557648565791e+03,9.446745872497558594e+00,-7.649186849594116211e-01,-1.223870038986206055e+00,2.150000000000000000e+02
9.318486430489838312e+02,7.158479042384847162e+02,1.159985225143039315e+03,1.316839292316983574e+03,7.022691041923710600e+02,7.128791260901400619e+02,5.128079900579044079e+03,9.541376542980410704e+02,9.446745872497558594e+00,-7.649186849594116211e-01,-1.223870038986206055e+00,2.160000000000000000e+02
1.055893962307578022e+03,5.847573261701927549e+02,1.070607098285277061e+03,1.288916927771023893e+03,6.388397219307616979e+02,5.882179685087764938e+02,4.625038845238748763e+03,8.294775332315600735e+02,9.446745872497558594e+00,-7.649186849594116211e-01,-1.223870038986206055e+00,2.170000000000000000e+02
1.058930588963448827e+03,6.452724364945852358e+02,1.037304306488012571e+03,1.224183461099199576e+03,6.136992257146912380e+02,6.072643601676184062e+02,4.042795567234127702e+03,8.407514557628703642e+02,9.446745872497558594e+00,-7.649186849594116211e-01,-1.223870038986206055e+00,2.180000000000000000e+02
9.189371049264250360e+02,8.213642329181679997e+02,1.106020076144437098e+03,1.204908909210731053e+03,6.687982500448554219e+02,7.516740874524905394e+02,3.921672354498169625e+03,9.752582210238483640e+02,9.446745872497558594e+00,-7.649186849594116211e-01,-1.223870038986206055e+00,2.190000000000000000e+02
8.119345637416708996e+02,8.746901058888581701e+02,1.180422470556150529e+03,1.251704086955049661e+03,7.341558891144347854e+02,8.294764779003537569e+02,3.963103584439434599e+03,1.049119518834637347e+03,9.446745872497558594e+00,-7.649186849594116211e-01,-1.223870038986206055e+00,2.200000000000000000e+02
8.680093946126007722e+02,7.350883711128381037e+02,1.155795836119388241e+03,1.294844585941403693e+03,7.250163287680013582e+02,7.413345041180523367e+02,3.583408320253643979e+03,9.619433112242902553e+02,9.446745872497558594e+00,-7.649186849594116211e-01,-1.223870038986206055e+00,2.210000000000000000e+02
9.915352790204674420e+02,5.994054263693908524e+02,1.064214252971329643e+03,1.269853654102634209e+03,6.592388574845001585e+02,6.172473948044867029e+02,2.976109066748253099e+03,8.356393588570063002e+02,9.446745872497558594e+00,-7.649186849594116211e-01,-1.223870038986206055e+00,2.220000000000000000e+02
9.941581756314576523e+02,6.609391462704375044e+02,1.030192794434468851e+03,1.206401020783413060e+03,6.325640813972756860e+02,6.345128235499364564e+02,2.633630255430018224e+03,8.450092303516182710e+02,9.446745872497558594e+00,-7.649186849594116211e-01,-1.223870038986206055e+00,2.230000000000000000e+02
8.553907559746940024e+02,8.424126284546928218e+02,1.099252325202329530e+03,1.187239014662981390e+03,6.867195640771828948e+02,7.725625968699737314e+02,2.486660645258011755e+03,9.763111800214985578e+02,9.446745872497558594e+00,-7.649186849594116211e-01,-1.223870038986206055e+00,2.240000000000000000e+02
7.505191534783925817e+02,9.016801157584252451e+02,1.175449857559716975e+03,1.233516028751169415e+03,7.522523137569676237e+02,8.440689866588804762e+02,2.308866275351371769e+03,1.047606656859066334e+03,9.446745872497558594e+00,-7.649186849594116211e-01,-1.223870038986206055e+00,2.250000000000000000e+02
8.080444478765325584e+02,7.659570205430106853e+02,1.153051755069252067e+03,1.275678311408503305e+03,7.442878442856622314e+02,7.553939889770497302e+02,2.266426383954514677e+03,9.605932944500596022e+02,9.446745872497558594e+00,-7.649186849594116211e-01,-1.223870038986206055e+00,2.260000000000000000e+02
9.325330349332743936e+02,6.318577130637374921e+02,1.061753516894377299e+03,1.250065213924242016e+03,6.795503835495082967e+02,6.345105614981955569e+02,2.417633791821397153e+03,8.352453747421361641e+02,9.446745872497558594e+00,-7.649186849594116211e-01,-1.223870038986206055e+00,2.270000000000000000e+02
9.369454017670659596e+02,6.918550980455818262e+02,1.026190877425292456e+03,1.186551511172249320e+03,6.537707748988786989e+02,6.528601639731020896e+02,2.383393072079728881e+03,8.434609280846486854e+02,9.446745872497558594e+00,-7.649186849594116211e-01,-1.223870038986206055e+00,2.280000000000000000e+02
8.007821356288559400e+02,8.674614094019086679e+02,1.094105064559767470e+03,1.166821098285632388e+03,7.094888178948453969e+02,7.894541081599227255e+02,2.052504208511212710e+03,9.722997512050994828e+02,9.446745872497558594e+00,-7.649186849594116211e-01,-1.223870038986206055e+00,2.290000000000000000e+02
6.982311237444100698e+02,9.192051503283109923e+02,1.169194198972408685e+03,1.212260875255518158e+03,7.758095072170140156e+02,8.604294925243236776e+02,1.868145181643590149e+03,1.041833761316253913e+03,9.446745872497558594e+00,-7.649186849594116211e-01,-1.223870038986206055e+00,2.300000000000000000e+02
7.577878230673582038e+02,7.788758220010097375e+02,1.143878943929340267e+03,1.254986103406462462e+03,7.654681605371001751e+02,7.720174233523393923e+02,2.001186123471669816e+03,9.533075250412298374e+02,9.446745872497558594e+00,-7.649186849594116211e-01,-1.223870038986206055e+00,2.310000000000000000e+02
8.850968318976538285e+02,6.427192128349172435e+02,1.049557461606288371e+03,1.230473692001490235e+03,6.964594985939900198e+02,6.495816924356900017e+02,2.051669903379204698e+03,8.263857364315397263e+02,9.446745872497558594e+00,-7.649186849594116211e-01,-1.223870038986206055e+00,2.320000000000000000e+02
8.931206532427577258e+02,7.000660145639303664e+02,1.013570778867698436e+03,1.165596782925758362e+03,6.679341824934958822e+02,6.656199563384568592e+02,1.868611782984717138e+03,8.349338275108977996e+02,9.446745872497558594e+00,-7.649186849594116211e-01,-1.223870038986206055e+00,2.330000000000000000e+02
7.596417153158508881e+02,8.741713381411232149e+02,1.081557459959308744e+03,1.142282248996017188e+03,7.224675632434173167e+02,8.022374279825944541e+02,1.760436234614349814e+03,9.662991838894640750e+02,9.446745872497558594e+00,-7.649186849594116211e-01,-1.223870038986206055e+00,2.340000000000000000e+02
6.573750162184724104e+02,9.290934316232771835e+02,1.154237248109507163e+03,1.185171272510699055e+03,7.871753530036921802e+02,8.746048634674118603e+02,1.704110043818953272e+03,1.037395923733441350e+03,9.446745872497558594e+00,-7.649186849594116211e-01,-1.223870038986206055e+00,2.350000000000000000e+02
7.154078930848090749e+02,7.941167211781569222e+02,1.126990505579961791e+03,1.226926510816681002e+03,7.759025088799430705e+02,7.852276798202874488e+02,1.437177037473284145e+03,9.478053472814260658e+02,9.446745872497558594e+00,-7.649186849594116211e-01,-1.223870038986206055e+00,2.360000000000000000e+02
8.413867915703385734e+02,6.610664099724460812e+02,1.035341797429271537e+03,1.201286980280172429e+03,7.086917133533183915e+02,6.593499071087453558e+02,1.420119827609612912e+03,8.194474636420554816e+02,9.446745872497558594e+00,-7.649186849594116211e-01,-1.223870038986206055e+00,2.370000000000000000e+02
8.496297050647517608e+02,7.195972273310203491e+02,1.004194090424555725e+03,1.136204791933054821e+03,6.829130937766763054e+02,6.730073046094298661e+02,2.390273639807173822e+03,8.280985818822150577e+02,9.446745872497558594e+00,-7.649186849594116211e-01,-1.223870038986206055e+00,2.380000000000000000e+02
7.177995340725665301e+02,8.926425113746863644e+02,1.074687594488897048e+03,1.115673175141117099e+03,7.384907145160859727e+02,8.100084988739508844e+02,3.928171286264626360e+03,9.603792170406113655e+02,9.484992027282714844e+00,-7.266727685928344727e-01,-1.262115836143493652e+00,2.390000000000000000e+02
6.176478110116477183e+02,9.400709601384446614e+02,1.148123331939165837e+03,1.162198521746317056e+03,8.032007891010562162e+02,8.843395340967717857e+02,4.788947189548041933e+03,1.032784895039254479e+03,9.484992027282714844e+00,-7.266727685928344727e-01,-1.262115836143493652e+00,2.400000000000000000e+02
6.769762759748055032e+02,7.929895713723713015e+02,1.121100626560359615e+03,1.205225205705191911e+03,7.914895321006479207e+02,7.980767424901987397e+02,4.702405301798324217e+03,9.456270530442238851e+02,9.484992027282714844e+00,-7.266727685928344727e-01,-1.262115836143493652e+00,2.410000000000000000e+02
8.024283129810337414e+02,6.527023167126540102e+02,1.025908006348716299e+03,1.179836406858535156e+03,7.213557375886612135e+02,6.765697703145492596e+02,4.505663680038755047e+03,8.197927649732764621e+02,9.484992027282714844e+00,-7.266727685928344727e-01,-1.262115836143493652e+00,2.420000000000000000e+02
8.091202479360690631e+02,7.113281616667895833e+02,9.863190819294832181e+02,1.116509801868193790e+03,6.900428113404882424e+02,6.929719762491617985e+02,4.570661956890116926e+03,8.283852052865072437e+02,9.484992027282714844e+00,-7.266727685928344727e-01,-1.262115836143493652e+00,2.430000000000000000e+02
6.773673588894671411e+02,8.843609047100117095e+02,1.049279139677178136e+03,1.097609503826529362e+03,7.408285867504105227e+02,8.272236476982902786e+02,4.486508127529741614e+03,9.574830348453915576e+02,9.484992027282714844e+00,-7.266727685928344727e-01,-1.262115836143493652e+00,2.440000000000000000e+02
5.804753288566580522e+02,9.299776678646840082e+02,1.120780227891183131e+03,1.143396121948124346e+03,8.030870739257034074e+02,8.943814313024631701e+02,4.202163517769517057e+03,1.025973266385781244e+03,9.484992027282714844e+00,-7.266727685928344727e-01,-1.262115836143493652e+00,2.450000000000000000e+02
6.447540029220408542e+02,7.854627418672084787e+02,1.094968676535454506e+03,1.185014943164767828e+03,7.901170750687788313e+02,8.015435606689379711e+02,4.168120741252008884e+03,9.361025524995129672e+02,9.484992027282714844e+00,-7.266727685928344727e-01,-1.262115836143493652e+00,2.460000000000000000e+02
7.745213849125302659e+02,6.505006038960641490e+02,1.000892440084071950e+03,1.159508733194760680e+03,7.201882924495657790e+02,6.760900526378959512e+02,4.381014381577515451e+03,8.082297175518529002e+02,9.484992027282714844e+00,-7.266727685928344727e-01,-1.262115836143493652e+00,2.470000000000000000e+02
7.841063310634990557e+02,7.082920342036122747e+02,9.629044733962828104e+02,1.095856964590628195e+03,6.910035903197772313e+02,6.893597530849356190e+02,4.363933012876141220e+03,8.141758699244137460e+02,9.484992027282714844e+00,-7.266727685928344727e-01,-1.262115836143493652e+00,2.480000000000000000e+02
6.538179052042814874e+02,8.754632597546174111e+02,1.027539742057952481e+03,1.075119476355293045e+03,7.428654677280201213e+02,8.211883756241431911e+02,4.054871962843590154e+03,9.401889908015236870e+02,9.484992027282714844e+00,-7.266727685928344727e-01,-1.262115836143493652e+00,2.490000000000000000e+02
5.570867494747380988e+02,9.201514896158178090e+02,1.098172518841686724e+03,1.119206078895464998e+03,8.026856528117677954e+02,8.887779733013412624e+02,3.873177586617446650e+03,1.006578725151983235e+03,9.484992027282714844e+00,-7.266727685928344727e-01,-1.262115836143493652e+00,2.500000000000000000e+02
6.215860069822174410e+02,7.804835187529624818e+02,1.069795778586146298e+03,1.160315453298628199e+03,7.863993696951747552e+02,7.985962390147633414e+02,3.980794565336906089e+03,9.162800971789802134e+02,9.484992027282714844e+00,-7.266727685928344727e-01,-1.262115836143493652e+00,2.510000000000000000e+02
7.535716190043422102e+02,6.483161716978847835e+02,9.751671753113669183e+02,1.134021342648396057e+03,7.153301407478911642e+02,6.744616079444476782e+02,4.104649903310812078e+03,7.885181151716178647e+02,9.484992027282714844e+00,-7.266727685928344727e-01,-1.262115836143493652e+00,2.520000000000000000e+02
7.674322451657899364e+02,7.060526181768582319e+02,9.385713431691383448e+02,1.068692524320596931e+03,6.857860941953540532e+02,6.862439121299676117e+02,4.017256680757880531e+03,7.936781046357141349e+02,9.484992027282714844e+00,-7.266727685928344727e-01,-1.262115836143493652e+00,2.530000000000000000e+02
6.415456679247308784e+02,8.754980499934595173e+02,1.003566374584072037e+03,1.047106627042396212e+03,7.362730079269267662e+02,8.155379727413937871e+02,3.797008712963448488e+03,9.183604812760522691e+02,9.484992027282714844e+00,-7.266727685928344727e-01,-1.262115836143493652e+00,2.540000000000000000e+02
5.472998656372110418e+02,9.229170404786018480e+02,1.073777442979538137e+03,1.092254508595357038e+03,7.951285112045998176e+02,8.814043003420401874e+02,3.657102598079745803e+03,9.843835799164753553e+02,9.484992027282714844e+00,-7.266727685928344727e-01,-1.262115836143493652e+00,2.550000000000000000e+02
6.111400429007208004e+02,7.801391211809841479e+02,1.046554577179112130e+03,1.135322283942403374e+03,7.794062606815632535e+02,7.911351440901498790e+02,3.703463729059567413e+03,8.952020749871517182e+02,9.484992027282714844e+00,-7.266727685928344727e-01,-1.262115836143493652e+00,2.560000000000000000e+02
7.398198953911050921e+02,6.401550324736126640e+02,9.542294476774632130e+02,1.110629957093412486e+03,7.093600511044187442e+02,6.689000462834446807e+02,3.819852090727088580e+03,7.696033445277680585e+02,9.484992027282714844e+00,-7.266727685928344727e-01,-1.262115836143493652e+00,2.570000000000000000e+02
7.508034848661955039e+02,6.919019788854357103e+02,9.193141233022961387e+02,1.046280252554011895e+03,6.811975026056752540e+02,6.837567986836875207e+02,3.783866037082505500e+03,7.778158193189756275e+02,9.484992027282714844e+00,-7.266727685928344727e-01,-1.262115836143493652e+00,2.580000000000000000e+02
6.254764024747328222e+02,8.599469716713065282e+02,9.853536755627737875e+02,1.025148049039579746e+03,7.342646252002359688e+02,8.153199129268750767e+02,3.564087269144485617e+03,9.056911013710860061e+02,9.484992027282714844e+00,-7.266727685928344727e-01,-1.262115836143493652e+00,2.590000000000000000e+02
5.343462060501478845e+02,9.102944140931776928e+02,1.055881568886183231e+03,1.070029575824270069e+03,7.954836397313765701e+02,8.811480653510770935e+02,3.395634016167947266e+03,9.729845106862767352e+02,9.408499717712402344e+00,-7.649186849594116211e-01,-1.109132170677185059e+00,2.600000000000000000e+02
6.006659856756195950e+02,7.751208396472575259e+02,1.027137614461951671e+03,1.111663019381810045e+03,7.794603102812416182e+02,7.882454378776274098e+02,3.454469321885779209e+03,8.824804362030208722e+02,9.408499717712402344e+00,-7.649186849594116211e-01,-1.109132170677185059e+00,2.610000000000000000e+02
7.301187619779921079e+02,6.449752423790705507e+02,9.320902386955258407e+02,1.084426821890428073e+03,7.064336597659521431e+02,6.617360094874757124e+02,3.593090256601379224e+03,7.554520538020560707e+02,9.408499717712402344e+00,-7.649186849594116211e-01,-1.109132170677185059e+00,2.620000000000000000e+02
7.408251084834828362e+02,7.024835227519406544e+02,8.950638503279596989e+02,1.017561477962579374e+03,6.741738801372639500e+02,6.731610507714503910e+02,3.549674645929691906e+03,7.640979747610754202e+02,9.408499717712402344e+00,-7.649186849594116211e-01,-1.109132170677185059e+00,2.630000000000000000e+02
6.137617764305305172e+02,8.687293787284543214e+02,9.592537266461258696e+02,9.950170158206556152e+02,7.229984769680932004e+02,8.043544566621267222e+02,3.321843130869012384e+03,8.925772667950650430e+02,9.408499717712402344e+00,-7.649186849594116211e-01,-1.109132170677185059e+00,2.640000000000000000e+02
5.191257652279637114e+02,9.123900229464861695e+02,1.027405875549200573e+03,1.039306522631822190e+03,7.810289006582752336e+02,8.721739607473682554e+02,3.164706494542340806e+03,9.588164946984143171e+02,9.408499717712402344e+00,-7.649186849594116211e-01,-1.109132170677185059e+00,2.650000000000000000e+02
5.814972965313500026e+02,7.699150345355301397e+02,9.977957659372623311e+02,1.080884833715557761e+03,7.646780896561149348e+02,7.817733145751872144e+02,3.231625370645095245e+03,8.674583342334590270e+02,9.408499717712402344e+00,-7.649186849594116211e-01,-1.109132170677185059e+00,2.660000000000000000e+02
7.070675732415493258e+02,6.343672233919696737e+02,9.049697814421833755e+02,1.055181627432835739e+03,6.944670560050617496e+02,6.585685316151048028e+02,3.366399754655831202e+03,7.419980187520841355e+02,9.408499717712402344e+00,-7.649186849594116211e-01,-1.109132170677185059e+00,2.670000000000000000e+02
7.128403284924479522e+02,6.899860973648237632e+02,8.706446279659985521e+02,9.913481883551194187e+02,6.661769936839382353e+02,6.740665411912859781e+02,3.324156641684166971e+03,7.528612290198125265e+02,9.408499717712402344e+00,-7.649186849594116211e-01,-1.109132170677185059e+00,2.680000000000000000e+02
5.804710792660152947e+02,8.583773578951004311e+02,9.355012416156941981e+02,9.700708628100419446e+02,7.177507863633190937e+02,8.064304455077290186e+02,3.102891001827178115e+03,8.812584827540613333e+02,9.408499717712402344e+00,-7.649186849594116211e-01,-1.109132170677185059e+00,2.690000000000000000e+02
4.825792907739087241e+02,9.068745372148068782e+02,1.004344056163910864e+03,1.011188370476076670e+03,7.763582135784899947e+02,8.699495774358356357e+02,2.949371798963798938e+03,9.457599373120337987e+02,9.408499717712402344e+00,-7.649186849594116211e-01,-1.109132170677185059e+00,2.700000000000000000e+02
5.431788739670064388e+02,7.703706551282757573e+02,9.779282252223665637e+02,1.047260538551134232e+03,7.593313129667812973e+02,7.735271563215792412e+02,3.017622452675062959e+03,8.534798544600516834e+02,9.408499717712402344e+00,-7.649186849594116211e-01,-1.109132170677185059e+00,2.710000000000000000e+02
6.649788417634154030e+02,6.410774481662929247e+02,8.890077331008378678e+02,1.017820708024535634e+03,6.888401103664509719e+02,6.473208310087056816e+02,3.156084639864304336e+03,7.279251566655939314e+02,9.408499717712402344e+00,-7.649186849594116211e-01,-1.109132170677185059e+00,2.720000000000000000e+02
6.640459717669364181e+02,7.015609562573217772e+02,8.565309203665292443e+02,9.530930126680541434e+02,6.609539900227737235e+02,6.617018923640707726e+02,3.117817331760612433e+03,7.381717325528961737e+02,9.408499717712402344e+00,-7.649186849594116211e-01,-1.109132170677185059e+00,2.730000000000000000e+02
5.243942045647818304e+02,8.715655808408346275e+02,9.215116680241872018e+02,9.327068346123160154e+02,7.127932531218684744e+02,7.920714700665948840e+02,2.902282206990032137e+03,8.662504612356460711e+02,9.408499717712402344e+00,-7.649186849594116211e-01,-1.109132170677185059e+00,2.740000000000000000e+02
4.199582183647507918e+02,9.192947554116190076e+02,9.899764624415074650e+02,9.766746820412881789e+02,7.720166505669239996e+02,8.546258130516043821e+02,2.755643876306865423e+03,9.324803507648457526e+02,9.408499717712402344e+00,-7.649186849594116211e-01,-1.109132170677185059e+00,2.750000000000000000e+02
4.747646904124449065e+02,7.823775213017597707e+02,9.625163085422955191e+02,1.017626312666288868e+03,7.568831261626928608e+02,7.606360809669531591e+02,2.829859136832350487e+03,8.428672406483128725e+02,9.408499717712402344e+00,-7.649186849594116211e-01,-1.109132170677185059e+00,2.760000000000000000e+02
5.934150594845050364e+02,6.535656438405576409e+02,8.725465655030184280e+02,9.924448433249926893e+02,6.876035160428400559e+02,6.374751640673457587e+02,2.972527393408345233e+03,7.177326399222256441e+02,9.408499717712402344e+00,-7.649186849594116211e-01,-1.109132170677185059e+00,2.770000000000000000e+02
5.943621083161597198e+02,7.138105587677455333e+02,8.409665692635826417e+02,9.285783286571659119e+02,6.573113828213827219e+02,6.521740057210117811e+02,2.937474915093069285e+03,7.252763473859895385e+02,9.408499717712402344e+00,-7.649186849594116211e-01,-1.109132170677185059e+00,2.780000000000000000e+02
4.604776257051598805e+02,8.825891156701527507e+02,9.083011578613022721e+02,9.066697852711913583e+02,7.043173918957709247e+02,7.820316373354853567e+02,2.723870274568107561e+03,8.499986736045248108e+02,9.408499717712402344e+00,-7.649186849594116211e-01,-1.109132170677185059e+00,2.790000000000000000e+02
3.620344677546163439e+02,9.287843360124707033e+02,9.770885356912658608e+02,9.496958618082426256e+02,7.600153155556217826e+02,8.465617026525160327e+02,2.578562431858692435e+03,9.145996571101441077e+02,9.408499717712402344e+00,-7.649186849594116211e-01,-1.109132170677185059e+00,2.800000000000000000e+02
4.211119544528628467e+02,7.886009211024320393e+02,9.462477120911171369e+02,9.908277767222934926e+02,7.433670813035623723e+02,7.563466321564264945e+02,2.653880729567936214e+03,8.252403241444881132e+02,9.408499717712402344e+00,-7.649186849594116211e-01,-1.109132170677185059e+00,2.810000000000000000e+02
5.429156487560758251e+02,6.532425008349200652e+02,8.516952520281629404e+02,9.656061077123740688e+02,6.732861614809917228e+02,6.364458130183811591e+02,2.797961247696825012e+03,7.017079796450634603e+02,9.408499717712402344e+00,-7.649186849594116211e-01,-1.109132170677185059e+00,2.820000000000000000e+02
5.470030899264202162e+02,7.064560017528674507e+02,8.174954805941997620e+02,9.015325911303007160e+02,6.439278380115920299e+02,6.537711493429760594e+02,2.764541022698489542e+03,7.122536510705667752e+02,9.408499717712402344e+00,-7.649186849594116211e-01,-1.109132170677185059e+00,2.830000000000000000e+02
4.167817957049701363e+02,8.725331867727436475e+02,8.849879284026501409e+02,8.798189601516423863e+02,6.948211099084037414e+02,7.857816283203901548e+02,2.553292728481115773e+03,8.407053878413480561e+02,9.408499717712402344e+00,-7.649186849594116211e-01,-1.109132170677185059e+00,2.840000000000000000e+02
3.222886570755545108e+02,9.206721307073294156e+02,9.562800759089914209e+02,9.217514591561030102e+02,7.550473283502942650e+02,8.502811460494049243e+02,2.410484080505804741e+03,9.078451703645259840e+02,9.484992027282714844e+00,-6.501809358596801758e-01,-1.223870038986206055e+00,2.850000000000000000e+02
3.846325804899497598e+02,7.829434614471247187e+02,9.295427801907644607e+02,9.587845922885935579e+02,7.408359122297988506e+02,7.569336726611290942e+02,2.488328914913130575e+03,8.188714431594307825e+02,9.484992027282714844e+00,-6.501809358596801758e-01,-1.223870038986206055e+00,2.860000000000000000e+02
5.085270681001929916e+02,6.473592575571492489e+02,8.383742719809270056e+02,9.288069386054867209e+02,6.717136483645335829e+02,6.328506165703893203e+02,2.634759099051996600e+03,6.947287030006973509e+02,9.484992027282714844e+00,-6.501809358596801758e-01,-1.223870038986206055e+00,2.870000000000000000e+02
5.143543084122247819e+02,6.964576059484097641e+02,8.036648956077842740e+02,8.634035393030917476e+02,6.429808578846932505e+02,6.474254270953297237e+02,2.604388751236154349e+03,7.046567917990378191e+02,9.484992027282714844e+00,-6.501809358596801758e-01,-1.223870038986206055e+00,2.880000000000000000e+02
3.861437121858798491e+02,8.536045651423301024e+02,8.662670633814977919e+02,8.438992221379776311e+02,6.930982367189008073e+02,7.783286276856215409e+02,2.398009454668092076e+03,8.317835395648198755e+02,9.484992027282714844e+00,-6.501809358596801758e-01,-1.223870038986206055e+00,2.890000000000000000e+02
2.930978124462380947e+02,8.901987578302305337e+02,9.315683456969745748e+02,8.883911937559278158e+02,7.506857136035032454e+02,8.423531619776549633e+02,2.260932486774567224e+03,8.967532746704418969e+02,9.484992027282714844e+00,-6.501809358596801758e-01,-1.223870038986206055e+00,2.900000000000000000e+02
3.557036317037345725e+02,7.454765556917918730e+02,9.014635723549126851e+02,9.272673438906513184e+02,7.338677026209043106e+02,7.487695678060954378e+02,2.343044389884322300e+03,8.065824336073983432e+02,9.484992027282714844e+00,-6.501809358596801758e-01,-1.223870038986206055e+00,2.910000000000000000e+02
4.797628959817811847e+02,6.126341800121099368e+02,8.106919747282190656e+02,8.998123787111799174e+02,6.632954169037475367e+02,6.242999605196255288e+02,2.491796068618612480e+03,6.828308942065541487e+02,9.484992027282714844e+00,-6.501809358596801758e-01,-1.223870038986206055e+00,2.920000000000000000e+02
4.870835133754662820e+02,6.709676837553124642e+02,7.791316790428409149e+02,8.372550006953460979e+02,6.330400011300444021e+02,6.368810854074363306e+02,2.463455990371519874e+03,6.919596810024395381e+02,9.484992027282714844e+00,-6.501809358596801758e-01,-1.223870038986206055e+00,2.930000000000000000e+02
3.621920668520506297e+02,8.372854257943363336e+02,8.460120165846292366e+02,8.187507521991537942e+02,6.805162701273493440e+02,7.629913188817426999e+02,2.259721351278669317e+03,8.147115862951359304e+02,9.484992027282714844e+00,-6.501809358596801758e-01,-1.223870038986206055e+00,2.940000000000000000e+02
2.745040173795205192e+02,8.809729864532437205e+02,9.149894496828601405e+02,8.622508207118735299e+02,7.348061752412631904e+02,8.207030167552275088e+02,2.125213138301332947e+03,8.735720145541199599e+02,9.484992027282714844e+00,-6.501809358596801758e-01,-1.223870038986206055e+00,2.950000000000000000e+02
3.440464520579043892e+02,7.420615649757037318e+02,8.864397308384959615e+02,9.001435736527764675e+02,7.146119029970068368e+02,7.222620494695238449e+02,2.209390944911632687e+03,7.787682349049191544e+02,9.484992027282714844e+00,-6.501809358596801758e-01,-1.223870038986206055e+00,2.960000000000000000e+02
4.742408061026071664e+02,6.122945303914748365e+02,7.945128090908929153e+02,8.725416459760963335e+02,6.409121110325559130e+02,5.957318261601649283e+02,2.360151192096971499e+03,6.521906436190547538e+02,9.484992027282714844e+00,-6.501809358596801758e-01,-1.223870038986206055e+00,2.970000000000000000e+02
4.843385594243009109e+02,6.689775678906607936e+02,7.597790154812591936e+02,8.098302798277873080e+02,6.087124916162811132e+02,6.077157660570701410e+02,2.334080283520990633e+03,6.593948434147150692e+02,9.484992027282714844e+00,-6.501809358596801758e-01,-1.223870038986206055e+00,2.980000000000000000e+02
3.590067248286613903e+02,8.300923857720845263e+02,8.230975408321864961e+02,7.908879907318696496e+02,6.563750098434284155e+02,7.335032017505000113e+02,2.132833216419414384e+03,7.821414568186337419e+02,9.484992027282714844e+00,-6.501809358596801758e-01,-1.223870038986206055e+00,2.990000000000000000e+02
2.692117301996295282e+02,8.679652660392730468e+02,8.898218019184969307e+02,8.342838622421622858e+02,7.126079345275938977e+02,7.921008237460391683e+02,2.000756900627282448e+03,8.440268164993249229e+02,9.484992027282714844e+00,-6.501809358596801758e-01,-1.223870038986206055e+00,3.000000000000000000e+02
3.352130596284441708e+02,7.245125807256663393e+02,8.611380684939213097e+02,8.725468972588205361e+02,6.947736699156412215e+02,6.968195550170639763e+02,2.086635261111172440e+03,7.538552658227654319e+02,9.484992027282714844e+00,-6.501809358596801758e-01,-1.223870038986206055e+00,3.010000000000000000e+02
4.609114097478632175e+02,5.920702775815007044e+02,7.708418679971309757e+02,8.453646255473722704e+02,6.230879106275951926e+02,5.746826387217188312e+02,2.238136254549994192e+03,6.313776008265322162e+02,9.484992027282714844e+00,-6.501809358596801758e-01,-1.223870038986206055e+00,3.020000000000000000e+02
4.684328072848256852e+02,6.475029768373478873e+02,7.383096739909069584e+02,7.829184661697072443e+02,5.928232049820926477e+02,5.905102940930191835e+02,2.212867557170364307e+03,6.413850629388980451e+02,9.484992027282714844e+00,-6.501809358596801758e-01,-1.223870038986206055e+00,3.030000000000000000e+02
3.446190143516396347e+02,8.075712840837950353e+02,8.028641790417168522e+02,7.640325084335381689e+02,6.426626364626645227e+02,7.194993887885193544e+02,2.013179026495905418e+03,7.652263476226562489e+02,9.484992027282714844e+00,-6.501809358596801758e-01,-1.223870038986206055e+00,3.040000000000000000e+02
2.586119690288360289e+02,8.439251125029077230e+02,8.690417612392011506e+02,8.070670480835142371e+02,7.010653318811437202e+02,7.816288744228913856e+02,1.882370797613730247e+03,8.264811888561653177e+02,9.484992027282714844e+00,-6.501809358596801758e-01,-1.223870038986206055e+00,3.050000000000000000e+02
3.276094722004854702e+02,6.985209896803316951e+02,8.390022020876876923e+02,8.445454149126926495e+02,6.851806838257816707e+02,6.897465158440372761e+02,1.968396143511658011e+03,7.359182611937430920e+02,9.484992027282714844e+00,-6.501809358596801758e-01,-1.223870038986206055e+00,3.060000000000000000e+02
4.547748052741953870e+02,5.633137102982564102e+02,7.482234309575069346e+02,8.166398127357242629e+02,6.152826949789159698e+02,5.688480350079062191e+02,2.120097647806680470e+03,6.152131908524970640e+02,9.484992027282714844e+00,-6.501809358596801758e-01,-1.223870038986206055e+00,3.070000000000000000e+02
4.623607149240924628e+02,6.154534004466186161e+02,7.160491140292087948e+02,7.540670696436827711e+02,5.859754234536958393e+02,5.828924933590151340e+02,2.096347884583759878e+03,6.277205594422903232e+02,9.484992027282714844e+00,-6.501809358596801758e-01,-1.223870038986206055e+00,3.080000000000000000e+02
3.366323126557108480e+02,7.740503486541419988e+02,7.803094949794467539e+02,7.356710108385486819e+02,6.346901555573567748e+02,7.088945729209699493e+02,1.899277796266884252e+03,7.523350390493978921e+02,9.484992027282714844e+00,-6.501809358596801758e-01,-1.223870038986206055e+00,3.090000000000000000e+02
2.476307104412917397e+02,8.123876687433421466e+02,8.452492806232294242e+02,7.795205043471250974e+02,6.902341532241371169e+02,7.692337121994187328e+02,1.771202758039587934e+03,8.132828153386217309e+02,9.484992027282714844e+00,-6.501809358596801758e-01,-1.223870038986206055e+00,3.100000000000000000e+02
3.152514171124348650e+02,6.707832921526933205e+02,8.140858602947046165e+02,8.182503454658544797e+02,6.719682251875201473e+02,6.771716894744022284e+02,1.861341229607191053e+03,7.229051654665709066e+02,9.484992027282714844e+00,-6.501809358596801758e-01,-1.223870038986206055e+00,3.110000000000000000e+02
4.436074986763705965e+02,5.393480801870537107e+02,7.225116971746647323e+02,7.923444591092593328e+02,6.011422468984128500e+02,5.565581851030656253e+02,2.017131095202057622e+03,6.016509948325274308e+02,9.484992027282714844e+00,-7.649186849594116211e-01,-1.223870038986206055e+00,3.120000000000000000e+02
4.534204248482274124e+02,5.956402100248324132e+02,6.896082907213931321e+02,7.318588029528400511e+02,5.708891917840228416e+02,5.703926201463509642e+02,1.995275012382546265e+03,6.115625032006500987e+02,9.484992027282714844e+00,-7.649186849594116211e-01,-1.223870038986206055e+00,3.130000000000000000e+02
3.301165401869366178e+02,7.582004942272724293e+02,7.543172553234398947e+02,7.142235055991041008e+02,6.175791305038692371e+02,6.949874305956436729e+02,1.798512205407387228e+03,7.334343499459791929e+02,9.484992027282714844e+00,-7.649186849594116211e-01,-1.223870038986206055e+00,3.140000000000000000e+02
2.439954986066659330e+02,7.979172873805964628e+02,8.219009804789893678e+02,7.572879375961383630e+02,6.707626975684688659e+02,7.518470646542045870e+02,1.672310693875202560e+03,7.930852490359065996e+02,9.484992027282714844e+00,-7.649186849594116211e-01,-1.223870038986206055e+00,3.150000000000000000e+02
3.139897753955810913e+02,6.558009077037331735e+02,7.942262045847019181e+02,7.949212810204771813e+02,6.503299285733119177e+02,6.542234621280367719e+02,1.764778232311567990e+03,7.009843977008367801e+02,9.484992027282714844e+00,-7.649186849594116211e-01,-1.223870038986206055e+00,3.160000000000000000e+02
4.430210778172477148e+02,5.256848513597487909e+02,7.051167971009563189e+02,7.681450002255696745e+02,5.774456276112905471e+02,5.275778479888103902e+02,1.921638948849089502e+03,5.762516259624389932e+02,9.484992027282714844e+00,-7.649186849594116211e-01,-1.223870038986206055e+00,3.170000000000000000e+02
4.530292361627289210e+02,5.852404923583162599e+02,6.738467692722260836e+02,7.064477518625426455e+02,5.462518554145717644e+02,5.369424805343587650e+02,1.900623126333543041e+03,5.832321643010618573e+02,9.484992027282714844e+00,-7.649186849594116211e-01,-1.223870038986206055e+00,3.180000000000000000e+02
3.313616413385752821e+02,7.495626785677177395e+02,7.399745098362618592e+02,6.875769739840616239e+02,5.939941535448524519e+02,6.596953424695602735e+02,1.706572687255669734e+03,7.044882184896814579e+02,9.484992027282714844e+00,-7.649186849594116211e-01,-1.223870038986206055e+00,3.190000000000000000e+02
2.476913965189160081e+02,7.893990594073457032e+02,8.077322835045633838e+02,7.305738054619359900e+02,6.485299135951645439e+02,7.176080741196819872e+02,1.583787162167172937e+03,7.641755174350328161e+02,9.484992027282714844e+00,-7.649186849594116211e-01,-1.223870038986206055e+00,3.200000000000000000e+02
3.190624285242738551e+02,6.478910109547505272e+02,7.781122747988993069e+02,7.693252075146083371e+02,6.276656037570101034e+02,6.240047678948867542e+02,1.677622924752235122e+03,6.717267820412162109e+02,9.484992027282714844e+00,-7.649186849594116211e-01,-1.223870038986206055e+00,3.210000000000000000e+02
4.482974704047010164e+02,5.165163706914900104e+02,6.860834021732152905e+02,7.442146938885998679e+02,5.536232638170513383e+02,5.038939020197722130e+02,1.834214548623851442e+03,5.483469891209861089e+02,9.484992027282714844e+00,-7.649186849594116211e-01,-1.223870038986206055e+00,3.220000000000000000e+02
4.583688490792337689e+02,5.694751696986786555e+02,6.524489601606910583e+02,6.853081308205946698e+02,5.226879836815896851e+02,5.202796640188789752e+02,1.813845120730395138e+03,5.592581739559209382e+02,9.484992027282714844e+00,-7.649186849594116211e-01,-1.223870038986206055e+00,3.230000000000000000e+02
3.367957471087138401e+02,7.258246714014494501e+02,7.170280114772795059e+02,6.705143469788890798e+02,5.715975070800050162e+02,6.469971291264118918e+02,1.621593578257277841e+03,6.840349515358830104e+02,9.484992027282714844e+00,-7.649186849594116211e-01,-1.223870038986206055e+00,3.240000000000000000e+02
2.531293182629524381e+02,7.634273409581037413e+02,7.839169894394326548e+02,7.162700405204814160e+02,6.268809357994214224e+02,7.036106101319237496e+02,1.499903739483699610e+03,7.444120657793646387e+02,9.484992027282714844e+00,-7.649186849594116211e-01,-1.223870038986206055e+00,3.250000000000000000e+02
3.248985810363155906e+02,6.247370860693881696e+02,7.543819655602637795e+02,7.537879338521233876e+02,6.073978376542654587e+02,6.056281214986374835e+02,1.593852797830288182e+03,6.514876927468430949e+02,9.484992027282714844e+00,-7.649186849594116211e-01,-1.223870038986206055e+00,3.260000000000000000e+02
4.550841348792600911e+02,4.949128809704016021e+02,6.633576221943876590e+02,7.246100073804846033e+02,5.363307947213543230e+02,4.825218868956762890e+02,1.751171851960767526e+03,5.286098085007615737e+02,9.484992027282714844e+00,-7.649186849594116211e-01,-1.223870038986206055e+00,3.270000000000000000e+02
4.661292614379053703e+02,5.464390792733247508e+02,6.308767464857264713e+02,6.619384862515362329e+02,5.076301747291145148e+02,4.987182222103983804e+02,1.732861764031244093e+03,5.398313343081208586e+02,9.484992027282714844e+00,-7.649186849594116211e-01,-1.223870038986206055e+00,3.280000000000000000e+02
3.454199931036127964e+02,7.009017552373770741e+02,6.959892133723587904e+02,6.446928543748072116e+02,5.557519616426325229e+02,6.263858948936176603e+02,1.543213293838925892e+03,6.631926837571372744e+02,9.484992027282714844e+00,-7.649186849594116211e-01,-1.223870038986206055e+00,3.290000000000000000e+02
2.626641046088552685e+02,7.361043560187063122e+02,7.629784284499437490e+02,6.887751052361309121e+02,6.093109657734312350e+02,6.849651393222011393e+02,1.423990464235626860e+03,7.224737995689574745e+02,9.484992027282714844e+00,-7.649186849594116211e-01,-1.223870038986206055e+00,3.300000000000000000e+02
3.347231728869883227e+02,5.936672722680741572e+02,7.342555789940488467e+02,7.259754760517607792e+02,5.905627679856916075e+02,5.911008167340405635e+02,1.520055539580513141e+03,6.315985905073212052e+02,9.484992027282714844e+00,-7.649186849594116211e-01,-1.223870038986206055e+00,3.310000000000000000e+02
4.637946790210044128e+02,4.619958514672762249e+02,6.452584250559266366e+02,6.986288672894988849e+02,5.221248520955086860e+02,4.722554746291425545e+02,1.678738923364144284e+03,5.127139587134151952e+02,9.484992027282714844e+00,-7.649186849594116211e-01,-1.223870038986206055e+00,3.320000000000000000e+02
4.728812876443189452e+02,5.163979001296320348e+02,6.143222068182694784e+02,6.388477612309834512e+02,4.951478021571601857e+02,4.893806075352404150e+02,1.661171536180583644e+03,5.265879893314195215e+02,9.484992027282714844e+00,-7.649186849594116211e-01,-1.223870038986206055e+00,3.330000000000000000e+02
3.502668073732638732e+02,6.751495006449258653e+02,6.781589694953254366e+02,6.236022676733155095e+02,5.439452624364457733e+02,6.153875699121090292e+02,1.472941448004843551e+03,6.511500069434114266e+02,9.484992027282714844e+00,-7.649186849594116211e-01,-1.223870038986206055e+00,3.340000000000000000e+02
2.652211647995718522e+02,7.118304917228451814e+02,7.414533519468022860e+02,6.682260186373314355e+02,5.987219646637677215e+02,6.731443018205536646e+02,1.356454718683118699e+03,7.123774019985721679e+02,9.484992027282714844e+00,-7.649186849594116211e-01,-1.223870038986206055e+00,3.350000000000000000e+02
3.341159994823538000e+02,5.699944517473813903e+02,7.096138887862907723e+02,7.053954035089918762e+02,5.808848658084862109e+02,5.794277198500676604e+02,1.455118542018710286e+03,6.238054181342085940e+02,9.484992027282714844e+00,-7.649186849594116211e-01,-1.223870038986206055e+00,3.360000000000000000e+02
4.604902335063379724e+02,4.420696324672644550e+02,6.197526440658657521e+02,6.783523745343554765e+02,5.106103565753619478e+02,4.596424283735868812e+02,1.613846090893814107e+03,5.051432673709132359e+02,9.484992027282714844e+00,-7.649186849594116211e-01,-1.223870038986206055e+00,3.370000000000000000e+02
4.689173489678942133e+02,5.020029557108064182e+02,5.889186618907588127e+02,6.192850936719514721e+02,4.791415572304540547e+02,4.756777609425334958e+02,1.596143336337088840e+03,5.172835899329911626e+02,9.484992027282714844e+00,-7.649186849594116211e-01,-1.223870038986206055e+00,3.380000000000000000e+02
3.471182050906863878e+02,6.636519534134786227e+02,6.523171179778073565e+02,6.048628013121342519e+02,5.234425692088079813e+02,6.028855549857216829e+02,1.409188607823904022e+03,6.404740624385485717e+02,9.484992027282714844e+00,-7.649186849594116211e-01,-1.223870038986206055e+00,3.390000000000000000e+02
2.629810631558793830e+02,7.002024574817369285e+02,7.151828177495408454e+02,6.507749284737947164e+02,5.755823538690528949e+02,6.632304218645222136e+02,1.294750459509858047e+03,7.009111482087828335e+02,9.484992027282714844e+00,-7.649186849594116211e-01,-1.223870038986206055e+00,3.400000000000000000e+02
3.329511019724668586e+02,5.582476382648710569e+02,6.843532674332927854e+02,6.904435998075205134e+02,5.572886821919200884e+02,5.707805620170329348e+02,1.395208235540776514e+03,6.106248131231877778e+02,9.484992027282714844e+00,-7.649186849594116211e-01,-1.223870038986206055e+00,3.410000000000000000e+02
4.610994397367903730e+02,4.306592801673759823e+02,5.974397761022701161e+02,6.664697540940323961e+02,4.889900374399949214e+02,4.507867119672773697e+02,1.557435621637298027e+03,4.899121596073855471e+02,9.484992027282714844e+00,-7.649186849594116211e-01,-1.223870038986206055e+00,3.420000000000000000e+02
4.714618844494689256e+02,4.889016884781194676e+02,5.711188627358787926e+02,6.089085312863680883e+02,4.616267278357372561e+02,4.661526291897935153e+02,1.544410626436292659e+03,5.015322714744215773e+02,9.446745872497558594e+00,-7.266727685928344727e-01,-1.185624003410339355e+00,3.430000000000000000e+02
3.513004043019391247e+02,6.468988174755977525e+02,6.398596796259735129e+02,5.933997005250857910e+02,5.099578770976004307e+02,5.909423306802054867e+02,1.361821859104704345e+03,6.250642807231815823e+02,9.446745872497558594e+00,-7.266727685928344727e-01,-1.185624003410339355e+00,3.440000000000000000e+02
2.687009408888625330e+02,6.816012913298072817e+02,7.075349343380185019e+02,6.368471893003516016e+02,5.636016574194363784e+02,6.457650299516681116e+02,1.250046523799450370e+03,6.846336188120985753e+02,9.446745872497558594e+00,-7.266727685928344727e-01,-1.185624003410339355e+00,3.450000000000000000e+02
3.392403038088523317e+02,5.415753220453916583e+02,6.792410784580351901e+02,6.738765174697473412e+02,5.446347842176619451e+02,5.472231185272758012e+02,1.351879186292164377e+03,5.928343024127534591e+02,9.446745872497558594e+00,-7.266727685928344727e-01,-1.185624003410339355e+00,3.460000000000000000e+02
4.656162238910183078e+02,4.169960382616263814e+02,5.919471311407251051e+02,6.470424963111436227e+02,4.760887297448352911e+02,4.245666167387462338e+02,1.514575619776383974e+03,4.720189825174566067e+02,9.446745872497558594e+00,-7.266727685928344727e-01,-1.185624003410339355e+00,3.470000000000000000e+02
4.731521148706960957e+02,4.762659967778381542e+02,5.635447449010134733e+02,5.869848667663827655e+02,4.498993536655325443e+02,4.408753048544422199e+02,1.500855471945425961e+03,4.842513185228817747e+02,9.446745872497558594e+00,-7.266727685928344727e-01,-1.185624003410339355e+00,3.480000000000000000e+02
3.522816804357862566e+02,6.337280700195115060e+02,6.301697357394878054e+02,5.711683573207847076e+02,4.989297498696505500e+02,5.675469659851296456e+02,1.317517694649010082e+03,6.067384571780712577e+02,9.446745872497558594e+00,-7.266727685928344727e-01,-1.185624003410339355e+00,3.490000000000000000e+02
2.715308929265593179e+02,6.678632609301203047e+02,6.960125013902143110e+02,6.169477586045395583e+02,5.513698029830229643e+02,6.247334027172946662e+02,1.206418168242191314e+03,6.641861776740443020e+02,9.446745872497558594e+00,-7.266727685928344727e-01,-1.185624003410339355e+00,3.500000000000000000e+02
3.438414233737785253e+02,5.269974418949350365e+02,6.654646886755690502e+02,6.569799711810483132e+02,5.306947140278934967e+02,5.304363170820179221e+02,1.309368276921217330e+03,5.721436761989316437e+02,9.446745872497558594e+00,-7.266727685928344727e-01,-1.185624003410339355e+00,3.510000000000000000e+02
4.705998945352912415e+02,4.011711710054951254e+02,5.755040072044539556e+02,6.321697765664284816e+02,4.616386639686716080e+02,4.124273865686518548e+02,1.471439457646949450e+03,4.533684201935102465e+02,9.446745872497558594e+00,-7.266727685928344727e-01,-1.185624003410339355e+00,3.520000000000000000e+02
4.782540403851089650e+02,4.604203200775482401e+02,5.452030942404526286e+02,5.735527543846837943e+02,4.356959042791495449e+02,4.300647828037181171e+02,1.456019155606336426e+03,4.673821241021069000e+02,9.446745872497558594e+00,-7.266727685928344727e-01,-1.185624003410339355e+00,3.530000000000000000e+02
3.578618579187968862e+02,6.194035689181437192e+02,6.117327799625345506e+02,5.588969018424540991e+02,4.851242480550645269e+02,5.544866107125380950e+02,1.272480146347283153e+03,5.904468646467394137e+02,9.446745872497558594e+00,-7.266727685928344727e-01,-1.185624003410339355e+00,3.540000000000000000e+02
2.775623038704579812e+02,6.535517486923017714e+02,6.790847600119886920e+02,6.042024327817780431e+02,5.389600159494366380e+02,6.095338956879495527e+02,1.162651989690319169e+03,6.490676287719761604e+02,9.446745872497558594e+00,-7.266727685928344727e-01,-1.185624003410339355e+00,3.550000000000000000e+02
3.507022828500994365e+02,5.088055381014273735e+02,6.506732897684341879e+02,6.414505440529683256e+02,5.204976656819562777e+02,5.151486153776058927e+02,1.266025755173279322e+03,5.595248055053052667e+02,9.446745872497558594e+00,-7.266727685928344727e-01,-1.185624003410339355e+00,3.560000000000000000e+02
4.792196954948449275e+02,3.772704368338054337e+02,5.627016250291489996e+02,6.135935539283163962e+02,4.523797921795485308e+02,3.975619395331559645e+02,1.427645869206520729e+03,4.428197976434094016e+02,9.446745872497558594e+00,-7.266727685928344727e-01,-1.185624003410339355e+00,3.570000000000000000e+02
4.887669771572254831e+02,4.324137454459960281e+02,5.336250997703245957e+02,5.539895779480139026e+02,4.256472891780576902e+02,4.154309204599230725e+02,1.413623510192366666e+03,4.574185295414426946e+02,9.446745872497558594e+00,-7.266727685928344727e-01,-1.185624003410339355e+00,3.580000000000000000e+02
3.694472219035087619e+02,5.892021047168163932e+02,5.995915053795251879e+02,5.399375027183923521e+02,4.746321796889678808e+02,5.414485769959392201e+02,1.234191309541114606e+03,5.808623056896394701e+02,9.446745872497558594e+00,-7.266727685928344727e-01,-1.185624003410339355e+00,3.590000000000000000e+02
2.895103533668152522e+02,6.218004833484519622e+02,6.639526622189732734e+02,5.857359525625215610e+02,5.289728501067365869e+02,5.995677984736321378e+02,1.128559922602638835e+03,6.407890170230602962e+02,9.446745872497558594e+00,-7.266727685928344727e-01,-1.185624003410339355e+00,3.600000000000000000e+02
3.625050260260177311e+02,4.768533102457695350e+02,6.314039324270561337e+02,6.234527252204425167e+02,5.102525953889271477e+02,5.073249666420888389e+02,1.233976902416456142e+03,5.526945699448369851e+02,9.446745872497558594e+00,-7.266727685928344727e-01,-1.185624003410339355e+00,3.610000000000000000e+02
4.905228553102933802e+02,3.477761752420046832e+02,5.406767360763042234e+02,5.968133103162035695e+02,4.408441979446433834e+02,3.895462760415248340e+02,1.395352940906130243e+03,4.363609398048392904e+02,9.446745872497558594e+00,-7.266727685928344727e-01,-1.185624003410339355e+00,3.620000000000000000e+02
5.005748508243268589e+02,4.069951490506027767e+02,5.113452363030810375e+02,5.383300336696920567e+02,4.132225394019260420e+02,4.058482723181587062e+02,1.381775915510646882e+03,4.500760570295788057e+02,9.446745872497558594e+00,-7.266727685928344727e-01,-1.185624003410339355e+00,3.630000000000000000e+02
3.836838126760267187e+02,5.677681919257811387e+02,5.786266408974988735e+02,5.246457571381906746e+02,4.614762247720282176e+02,5.296026462647860171e+02,1.202897776513811550e+03,5.716911243205031496e+02,9.408499717712402344e+00,-7.266727685928344727e-01,-1.185624003410339355e+00,3.640000000000000000e+02
3.064638485309696989e+02,6.045579819478043646e+02,6.450081932093671639e+02,5.715733120389995747e+02,5.139261502426888910e+02,5.843798425904969918e+02,1.096952899199153762e+03,6.290552087749347265e+02,9.408499717712402344e+00,-7.266727685928344727e-01,-1.185624003410339355e+00,3.650000000000000000e+02
3.801467610178660834e+02,4.641601741685735760e+02,6.152506718777003698e+02,6.118493347190451459e+02,4.930231880064384313e+02,4.888848240339939366e+02,1.201888664914920810e+03,5.382910139279629220e+02,9.408499717712402344e+00,-7.266727685928344727e-01,-1.185624003410339355e+00,3.660000000000000000e+02
5.067652804485114757e+02,3.372455851052982325e+02,5.276471092155261431e+02,5.867321670394449029e+02,4.233191773851140169e+02,3.707227402827265905e+02,1.364178888205598923e+03,4.203538507412049512e+02,9.408499717712402344e+00,-7.266727685928344727e-01,-1.185624003410339355e+00,3.670000000000000000e+02
5.142126672070735367e+02,3.936430257693027670e+02,5.006336835336696822e+02,5.271820379131968366e+02,3.979049490201141452e+02,3.895894893131335266e+02,1.350154513585977838e+03,4.341192654117403436e+02,9.408499717712402344e+00,-7.266727685928344727e-01,-1.185624003410339355e+00,3.680000000000000000e+02
3.938349642813846003e+02,5.487684036404971266e+02,5.691353703171771485e+02,5.122296731196984183e+02,4.499791520533181028e+02,5.148769020131003344e+02,1.169239681483944878e+03,5.565109634974469373e+02,9.408499717712402344e+00,-7.266727685928344727e-01,-1.185624003410339355e+00,3.690000000000000000e+02
3.135293315217131749e+02,5.823079368883409188e+02,6.361674688121856889e+02,5.599524475976650137e+02,5.062954466500668786e+02,5.676192488143860828e+02,1.062062216224396252e+03,6.139032673133915523e+02,9.408499717712402344e+00,-7.266727685928344727e-01,-1.185624003410339355e+00,3.700000000000000000e+02
3.868909939674340421e+02,4.433894339181460964e+02,6.065365883090853458e+02,6.020478453240211820e+02,4.871344171948512667e+02,4.694335153733263724e+02,1.167763275767589221e+03,5.223128478313446976e+02,9.408499717712402344e+00,-7.266727685928344727e-01,-1.185624003410339355e+00,3.710000000000000000e+02
5.158387762801139615e+02,3.204105627472126798e+02,5.183989665659173625e+02,5.787413062083942350e+02,4.160794501521886559e+02,3.514629009296040749e+02,1.330959464080646285e+03,4.037940667999937432e+02,9.408499717712402344e+00,-7.266727685928344727e-01,-1.185624003410339355e+00,3.720000000000000000e+02
5.252467365267802961e+02,3.805320104840830027e+02,4.907844344315817580e+02,5.218456708983721910e+02,3.876668635301757604e+02,3.717702904405014124e+02,1.316826288586875307e+03,4.171737767642844119e+02,9.408499717712402344e+00,-7.266727685928344727e-01,-1.185624003410339355e+00,3.730000000000000000e+02
4.051633661184023367e+02,5.393118374148871226e+02,5.593565847404461238e+02,5.098775389867223566e+02,4.364918992268867441e+02,4.962341683397389716e+02,1.136196746778354282e+03,5.378040201405892731e+02,9.408499717712402344e+00,-7.266727685928344727e-01,-1.185624003410339355e+00,3.740000000000000000e+02
3.253136493813071866e+02,5.772436724088183837e+02,6.273622768919522059e+02,5.587510103618842550e+02,4.893792438845484867e+02,5.465303557641600491e+02,1.030230149798822822e+03,5.917363300712459022e+02,9.408499717712402344e+00,-7.266727685928344727e-01,-1.185624003410339355e+00,3.750000000000000000e+02
4.001823365256277611e+02,4.421308819535843213e+02,5.994453746363433311e+02,6.004211460651858943e+02,4.676260397339792689e+02,4.471263565691479016e+02,1.136368197410309222e+03,4.968670821493869880e+02,9.408499717712402344e+00,-7.266727685928344727e-01,-1.185624003410339355e+00,3.760000000000000000e+02
5.303203370088303927e+02,3.206129552817292279e+02,5.124591198781417916e+02,5.775165510454244213e+02,3.961164890307627502e+02,3.293738181380540482e+02,1.298737654147698777e+03,3.766271531152815442e+02,9.408499717712402344e+00,-7.266727685928344727e-01,-1.185624003410339355e+00,3.770000000000000000e+02
5.403658678390493151e+02,3.799522432578814914e+02,4.830211097049323143e+02,5.220579997256718343e+02,3.678262177949509351e+02,3.507427136889600661e+02,1.284419629103053012e+03,3.897853744942985941e+02,9.408499717712402344e+00,-7.266727685928344727e-01,-1.185624003410339355e+00,3.780000000000000000e+02
4.217024196243000915e+02,5.353757192375996965e+02,5.463800966631824849e+02,5.106619728182122344e+02,4.156055904188106069e+02,4.788164995629704208e+02,1.105312153474849765e+03,5.125733055926903035e+02,9.408499717712402344e+00,-7.266727685928344727e-01,-1.185624003410339355e+00,3.790000000000000000e+02
3.435169929261464858e+02,5.650877878814499127e+02,6.091735189024329884e+02,5.585497939399938332e+02,4.688250515137624461e+02,5.356071144585730508e+02,1.001523008562158793e+03,5.724645117946492974e+02,9.408499717712402344e+00,-7.266727685928344727e-01,-1.185624003410339355e+00,3.800000000000000000e+02
4.180552871862892061e+02,4.175022047162128729e+02,5.794665672437695321e+02,5.978637606347765541e+02,4.515491655070727575e+02,4.414071162969412399e+02,1.109702884265163448e+03,4.857372314144522534e+02,9.408499717712402344e+00,-7.266727685928344727e-01,-1.185624003410339355e+00,3.810000000000000000e+02
5.460531485183601035e+02,2.856386781547917053e+02,4.937868324511509854e+02,5.707282478968918440e+02,3.860068292895157356e+02,3.241857999812636990e+02,1.274401588235341478e+03,3.719748971058943425e+02,9.408499717712402344e+00,-7.266727685928344727e-01,-1.185624003410339355e+00,3.820000000000000000e+02
5.539245661368186120e+02,3.422315229246596573e+02,4.665778951776446775e+02,5.097907074653267046e+02,3.615131327678100206e+02,3.439558143390604528e+02,1.260134750655182870e+03,3.888443463121730019e+02,9.408499717712402344e+00,-7.266727685928344727e-01,-1.185624003410339355e+00,3.830000000000000000e+02
4.352809886120667215e+02,5.005222567481250735e+02,5.313991684813445318e+02,4.939276014907227363e+02,4.109189278572084731e+02,4.717213534790644189e+02,1.080598300333396764e+03,5.137417776325310115e+02,9.408499717712402344e+00,-7.266727685928344727e-01,-1.185624003410339355e+00,3.840000000000000000e+02
3.577784893167408882e+02,5.352613790313480422e+02,5.937829236968464102e+02,5.400169362079686834e+02,4.640612113884853898e+02,5.291991160426259739e+02,9.750465899460687069e+02,5.739819303821350331e+02,9.408499717712402344e+00,-7.266727685928344727e-01,-1.185624003410339355e+00,3.850000000000000000e+02
4.323658562175696716e+02,3.950722077582322527e+02,5.612716796212625923e+02,5.802226836425106740e+02,4.430759911257628119e+02,4.353698898600778193e+02,1.079888911326474044e+03,4.851691275327175390e+02,9.408499717712402344e+00,-7.266727685928344727e-01,-1.185624003410339355e+00,3.860000000000000000e+02
5.603626436650083633e+02,2.717154214550246252e+02,4.720817506389284972e+02,5.568142410658329027e+02,3.714928601207648171e+02,3.193639927297190297e+02,1.240478271880099783e+03,3.692870831292384537e+02,9.408499717712402344e+00,-7.266727685928344727e-01,-1.185624003410339355e+00,3.870000000000000000e+02
5.698179707218514523e+02,3.318955170386252576e+02,4.431175710981624434e+02,5.017537437036808114e+02,3.438149930412764661e+02,3.411206539375052671e+02,1.225826172108354513e+03,3.863450260628742399e+02,9.408499717712402344e+00,-7.266727685928344727e-01,-1.185624003410339355e+00,3.880000000000000000e+02
4.528247470700443955e+02,4.870077186697017169e+02,5.088333283955071238e+02,4.907558392095888848e+02,3.946175036651256960e+02,4.685427175485165208e+02,1.048163115443836432e+03,5.115639514256181428e+02,9.446745872497558594e+00,-7.266727685928344727e-01,-1.223870038986206055e+00,3.890000000000000000e+02
3.759202519257087260e+02,5.178956126490447787e+02,5.743634748965632753e+02,5.372755393795887358e+02,4.500198888305312721e+02,5.217354086441773688e+02,9.455032535041100346e+02,5.688827407299395418e+02,9.446745872497558594e+00,-7.266727685928344727e-01,-1.223870038986206055e+00,3.900000000000000000e+02
4.493787097701133462e+02,3.782472160745528527e+02,5.471640629872927093e+02,5.740097365894907853e+02,4.308925525984013802e+02,4.230686073176693753e+02,1.051941981556912651e+03,4.759010042358277133e+02,9.446745872497558594e+00,-7.266727685928344727e-01,-1.223870038986206055e+00,3.910000000000000000e+02
5.747139617813663790e+02,2.574334851933090249e+02,4.638051446758545353e+02,5.465708880317761214e+02,3.625104877013072837e+02,3.044909896417157142e+02,1.212195104457641719e+03,3.585781355639919639e+02,9.446745872497558594e+00,-7.266727685928344727e-01,-1.223870038986206055e+00,3.920000000000000000e+02
5.813232313426997280e+02,3.189034536255057901e+02,4.379026490957621718e+02,4.892227650701388484e+02,3.374931432683879393e+02,3.239849833894841140e+02,1.196468145002407255e+03,3.756794069385505281e+02,9.446745872497558594e+00,-7.266727685928344727e-01,-1.223870038986206055e+00,3.930000000000000000e+02
