F3,F4,C3,C4,P3,P4,Cz,Pz,Accel_x,Accel_y,Accel_z,Sample
2.864908310584723949e-11,-1.818989403545856476e-12,9.094947017729282379e-12,-1.455191522836685181e-11,1.591615728102624416e-11,-2.364686224609613419e-11,5.093170329928398132e-11,-2.046363078989088535e-11,9.523238182067871094e+00,3.442134261131286621e-01,-2.294756323099136353e-01,0.000000000000000000e+00
-6.196832021616733073e+02,-3.272268308736283871e+02,-6.931957436765287639e+02,-6.443276747328877718e+02,-6.016763215652231338e+02,-4.750132584858988594e+02,-6.225903642372409195e+02,-3.362018892126866376e+02,9.523238182067871094e+00,3.442134261131286621e-01,-2.294756323099136353e-01,1.000000000000000000e+00
-8.465276328986810768e+02,-4.851987852678194031e+02,-9.306107996410125907e+02,-1.485115196383989769e+03,-8.255905135039074594e+02,-6.664960632623374295e+02,-1.373774052402785401e+03,-4.747959459842254546e+02,9.523238182067871094e+00,3.442134261131286621e-01,-2.294756323099136353e-01,2.000000000000000000e+00
-7.552806554070889433e+02,-4.854898411646588556e+02,-8.263017781497878786e+02,-2.354448177977216801e+03,-7.553065065671655702e+02,-6.334767798535531256e+02,-2.274772225415967569e+03,-4.584475699616793918e+02,9.523238182067871094e+00,3.442134261131286621e-01,-2.294756323099136353e-01,3.000000000000000000e+00
-6.360368637861124625e+02,-4.256366113930678239e+02,-7.245628254333457789e+02,-2.809468458161730268e+03,-6.794397460599975602e+02,-5.772670713848840478e+02,-3.076780029484635634e+03,-3.993314460568167306e+02,9.523238182067871094e+00,3.442134261131286621e-01,-2.294756323099136353e-01,4.000000000000000000e+00
-5.389879843995122428e+02,-3.201920372784645679e+02,-6.481407505120257611e+02,-2.724290485578982043e+03,-6.372583775857785895e+02,-5.104286179183889089e+02,-3.516339078781243643e+03,-2.693380631841846480e+02,9.523238182067871094e+00,3.442134261131286621e-01,-2.294756323099136353e-01,5.000000000000000000e+00
-3.412797490191155703e+02,-1.315866114574632775e+02,-4.427225153063075140e+02,-2.662737241915665891e+03,-4.929293663478399594e+02,-3.385109493553741231e+02,-3.845554266040445327e+03,-3.462447656259450923e+01,9.523238182067871094e+00,3.442134261131286621e-01,-2.294756323099136353e-01,6.000000000000000000e+00
-9.242602707045762145e+01,7.411109936265665965e+01,-1.872152496027683810e+02,-3.239869026890788518e+03,-2.849738080502936555e+02,-1.308900553141870660e+02,-4.393092026846856243e+03,1.707848426380344335e+02,9.523238182067871094e+00,3.442134261131286621e-01,-2.294756323099136353e-01,7.000000000000000000e+00
4.089747368304551856e+01,1.787949622746380101e+02,-6.660308918113878462e+01,-4.246815427907336925e+03,-1.774156761828639901e+02,-4.044441605907923076e+01,-4.891532822850873345e+03,2.263829523542717652e+02,9.523238182067871094e+00,3.442134261131286621e-01,-2.294756323099136353e-01,8.000000000000000000e+00
9.498104734970502250e+01,2.258827387841333802e+02,-1.652807533053146472e+01,-4.887395325204262917e+03,-1.482260740363676632e+02,-2.082668686533656910e+01,-5.103960488203919340e+03,2.557764576594161099e+02,9.523238182067871094e+00,3.442134261131286621e-01,-2.294756323099136353e-01,9.000000000000000000e+00
2.787949602905919164e+02,3.997237448197136018e+02,1.738899219245251970e+02,-4.826702222793933288e+03,-7.960845926057572797e+00,1.287298148505033168e+02,-5.628705899005926767e+03,4.620103748036831348e+02,9.523238182067871094e+00,3.442134261131286621e-01,-2.294756323099136353e-01,1.000000000000000000e+01
5.925518324479876355e+02,7.000014523497106893e+02,4.843146831405965713e+02,-4.511165247028544400e+03,2.530292187645206923e+02,4.090446622070928697e+02,-6.755228705421664017e+03,7.838724725436193239e+02,9.523238182067871094e+00,3.442134261131286621e-01,-2.294756323099136353e-01,1.100000000000000000e+01
7.879254447528646779e+02,8.845536117221190580e+02,6.877177774453662096e+02,-4.542881527844240736e+03,4.208792680188512350e+02,5.847586727240029632e+02,-7.537926758193420028e+03,9.614138251901219974e+02,9.523238182067871094e+00,3.442134261131286621e-01,-2.294756323099136353e-01,1.200000000000000000e+01
8.201378355088133958e+02,8.999631872995882986e+02,7.462532800385952214e+02,-5.129021037806943241e+03,4.512380074255293039e+02,6.037945392204758264e+02,-7.638386896172049092e+03,9.652690269461311345e+02,9.523238182067871094e+00,3.442134261131286621e-01,-2.294756323099136353e-01,1.300000000000000000e+01
9.526065620074939488e+02,1.011480422063746119e+03,8.706554240036400643e+02,-5.901325317529963286e+03,5.644532039401026395e+02,7.080777239571223163e+02,-8.293850651173830556e+03,1.058046171281418310e+03,9.523238182067871094e+00,3.442134261131286621e-01,-2.294756323099136353e-01,1.400000000000000000e+01
1.241759059557057526e+03,1.289356403968081622e+03,1.127543301881151365e+03,-6.122525931513671821e+03,8.075017788024251786e+02,9.666364386884172291e+02,-9.710044740709117832e+03,1.335138801286999751e+03,9.523238182067871094e+00,3.442134261131286621e-01,-2.294756323099136353e-01,1.500000000000000000e+01
1.424951824695478081e+03,1.465832211047758619e+03,1.340743664649452057e+03,-5.644981632794507277e+03,9.611023146803543113e+02,1.147192817452799318e+03,-1.036032141374531602e+04,1.574354288280299670e+03,9.523238182067871094e+00,3.442134261131286621e-01,-2.294756323099136353e-01,1.600000000000000000e+01
1.496874671573458500e+03,1.518004538599162515e+03,1.468708364612161404e+03,-5.494074653252835560e+03,1.029288744187257862e+03,1.222209118378734274e+03,-1.043292524655198940e+04,1.675242480832792126e+03,9.523238182067871094e+00,3.442134261131286621e-01,-2.294756323099136353e-01,1.700000000000000000e+01
1.721782163507614541e+03,1.713508338716659182e+03,1.653488906194368155e+03,-6.423579223989730053e+03,1.236873752867568101e+03,1.412112570267306637e+03,-1.176385052047248428e+04,1.798153749619880500e+03,9.523238182067871094e+00,3.442134261131286621e-01,-2.294756323099136353e-01,1.800000000000000000e+01
1.965655704234258337e+03,1.938963882846951265e+03,1.837443495745213568e+03,-7.384534016277668343e+03,1.454657105215970660e+03,1.616373633127074754e+03,-1.336735732975303290e+04,1.954874269649103098e+03,9.523238182067871094e+00,3.442134261131286621e-01,-2.294756323099136353e-01,1.900000000000000000e+01
1.926534204335671575e+03,1.899506246921400134e+03,1.878807316854230976e+03,-7.142340987151725130e+03,1.417550651468972092e+03,1.591284680241859633e+03,-1.295467708303496329e+04,2.022409682904255760e+03,9.523238182067871094e+00,3.442134261131286621e-01,-2.294756323099136353e-01,2.000000000000000000e+01
1.990613099001935097e+03,1.967974395808191503e+03,2.018260110605027648e+03,-6.623021566682614321e+03,1.472630580410122548e+03,1.670311892345907381e+03,-1.291906724217974624e+04,2.185429116134961077e+03,9.523238182067871094e+00,3.442134261131286621e-01,-2.294756323099136353e-01,2.100000000000000000e+01
2.593397966122846356e+03,2.565152127831119742e+03,2.475724122898873247e+03,-7.154584960377093012e+03,2.005736009116819559e+03,2.210705022520730381e+03,-1.648103422572889031e+04,2.613696940992659620e+03,9.523238182067871094e+00,3.442134261131286621e-01,-2.294756323099136353e-01,2.200000000000000000e+01
2.864239489770665386e+03,2.820541806844114944e+03,2.678775314589639493e+03,-7.287426100172795486e+03,2.248901871028004280e+03,2.438722991227850798e+03,-1.839414650875085863e+04,2.756958624139393578e+03,9.523238182067871094e+00,3.442134261131286621e-01,-2.294756323099136353e-01,2.300000000000000000e+01
1.574313782532699179e+03,1.519013453510781119e+03,1.896643505052548790e+03,-4.649058027940101965e+03,1.119104217998872173e+03,1.294736393363588604e+03,-1.037917294345270420e+04,1.945964712260467422e+03,9.523238182067871094e+00,3.442134261131286621e-01,-2.294756323099136353e-01,2.400000000000000000e+01
-6.297158454212024026e+02,-6.830705633485201815e+02,5.819545028707379970e+02,-3.379831836493037827e+02,-8.153002015304280121e+02,-6.323240685264768217e+02,4.118332088469328482e+03,6.514730432749893225e+02,9.484992027282714844e+00,1.529837548732757568e-01,-2.294756323099136353e-01,2.500000000000000000e+01
-1.798054079037391602e+03,-1.845213053174296874e+03,-5.509236490672572018e+01,2.140373342368060548e+03,-1.837944346588118606e+03,-1.636173106779162936e+03,1.247537331415733752e+04,3.469439988144154086e+01,9.484992027282714844e+00,1.529837548732757568e-01,-2.294756323099136353e-01,2.600000000000000000e+01
-1.460956158441227217e+03,-1.514970933789231140e+03,2.276574050243186775e+02,1.958575076930780369e+03,-1.534471692852664773e+03,-1.329169352448998325e+03,1.077993851044944495e+04,2.878826198985098017e+02,9.484992027282714844e+00,1.529837548732757568e-01,-2.294756323099136353e-01,2.700000000000000000e+01
-9.539763934935340330e+02,-1.027570579921651188e+03,5.728446681452289795e+02,1.464760746077098247e+03,-1.082691505852804994e+03,-8.948079506190260872e+02,7.196367693638641867e+03,5.712790050227606571e+02,9.484992027282714844e+00,1.529837548732757568e-01,-2.294756323099136353e-01,2.800000000000000000e+01
-1.034557397762146593e+03,-1.120983833543747096e+03,5.428116392350307251e+02,1.954336279347518712e+03,-1.154816904781470839e+03,-9.806037591505114506e+02,7.292169672272887510e+03,5.089692337177289119e+02,9.484992027282714844e+00,1.529837548732757568e-01,-2.294756323099136353e-01,2.900000000000000000e+01
-1.092543495958946551e+03,-1.174710433975018759e+03,5.629183007270423786e+02,2.392782096620676384e+03,-1.214440486844481029e+03,-1.028946111966964509e+03,7.968314327975438573e+03,5.465501940812823705e+02,9.484992027282714844e+00,1.529837548732757568e-01,-2.294756323099136353e-01,3.000000000000000000e+01
-7.498328833821783519e+02,-8.243749679470454339e+02,8.609685505772997658e+02,2.189432127940341161e+03,-9.205713800355156309e+02,-7.117742459722408057e+02,6.586140762745021675e+03,8.628003295229516425e+02,9.484992027282714844e+00,1.529837548732757568e-01,-2.294756323099136353e-01,3.100000000000000000e+01
-4.840251871873178970e+02,-5.645317358946651893e+02,1.089443281543733974e+03,2.143681528045170126e+03,-6.852883520635878085e+02,-4.718085239686735122e+02,5.277899177683935704e+03,1.062421539450987893e+03,9.484992027282714844e+00,1.529837548732757568e-01,-2.294756323099136353e-01,3.200000000000000000e+01
-5.289304733816247790e+02,-6.255484235040316889e+02,1.081552264042422394e+03,2.563920725194531315e+03,-7.158472160502751649e+02,-5.230110872042439496e+02,5.113847635567036377e+03,1.000087471616354151e+03,9.484992027282714844e+00,1.529837548732757568e-01,-2.294756323099136353e-01,3.300000000000000000e+01
-5.174349798881305560e+02,-6.231658519177531161e+02,1.103359976299789423e+03,2.813583535686180767e+03,-6.977709902630772376e+02,-5.243526765119880793e+02,4.402723015919013051e+03,1.001944520133531910e+03,9.484992027282714844e+00,1.529837548732757568e-01,-2.294756323099136353e-01,3.400000000000000000e+01
-2.903765214605280107e+02,-3.917953044406291383e+02,1.297430639583757056e+03,2.714283927396565559e+03,-4.951655999218969555e+02,-3.161510621702758499e+02,3.095170720427560809e+03,1.224748047305295131e+03,9.484992027282714844e+00,1.529837548732757568e-01,-2.294756323099136353e-01,3.500000000000000000e+01
-9.372443905555530819e+01,-1.889996312014362729e+02,1.500491921191614892e+03,2.730397585439608520e+03,-3.188862639753568828e+02,-1.193984150930948545e+02,2.631623180971506372e+03,1.454303016165353483e+03,9.484992027282714844e+00,1.529837548732757568e-01,-2.294756323099136353e-01,3.600000000000000000e+01
-2.934795975747124430e+01,-1.292502966544095671e+02,1.600136513916768763e+03,2.969570221619668246e+03,-2.517018171493558611e+02,-4.473126011853526052e+01,2.404780873415871611e+03,1.532864020767607599e+03,9.484992027282714844e+00,1.529837548732757568e-01,-2.294756323099136353e-01,3.700000000000000000e+01
2.995408410437664770e+01,-8.249361895443030335e+01,1.653926355551139295e+03,3.148259786682624508e+03,-1.852407637592226592e+02,1.038311763527497078e+01,1.191227443347681856e+03,1.539662012310960563e+03,9.484992027282714844e+00,1.529837548732757568e-01,-2.294756323099136353e-01,3.800000000000000000e+01
1.277607051782582630e+02,8.207653532691438159e+00,1.722808099502422920e+03,3.219064732386672404e+03,-9.202339998900049522e+01,9.727171070203257841e+01,9.588389154555852656e+01,1.593746652329874905e+03,9.484992027282714844e+00,1.529837548732757568e-01,-2.294756323099136353e-01,3.900000000000000000e+01
2.345574201787264883e+02,1.188035547206394540e+02,1.831960248743349894e+03,3.302448493917792348e+03,1.537038617257167061e-01,2.068441682605734968e+02,3.185776284351604772e+02,1.735301614633077179e+03,9.484992027282714844e+00,1.529837548732757568e-01,-2.294756323099136353e-01,4.000000000000000000e+01
3.707905039869793882e+02,2.600481632411105011e+02,1.989518795638911342e+03,3.381107358620793548e+03,1.211782482070212836e+02,3.541958255775454063e+02,6.450875041462904846e+02,1.922869715841367906e+03,9.484992027282714844e+00,1.529837548732757568e-01,-2.294756323099136353e-01,4.100000000000000000e+01
5.098808778822379963e+02,3.940318005516106723e+02,2.132766878183746030e+03,3.448837967272962487e+03,2.559861903688868097e+02,4.947988992423902346e+02,-2.380027189338102289e+01,2.045464764249898508e+03,9.484992027282714844e+00,1.529837548732757568e-01,-2.294756323099136353e-01,4.200000000000000000e+01
5.744636277154382924e+02,4.463478187259972856e+02,2.188162972159380843e+03,3.588777403454080286e+03,3.275449649092288382e+02,5.482762493253272851e+02,-7.459087779310784754e+02,2.048429777951958386e+03,9.484992027282714844e+00,1.529837548732757568e-01,-2.294756323099136353e-01,4.300000000000000000e+01
6.016569338465849341e+02,4.676426094687931254e+02,2.208293959859878214e+03,3.754545237565087518e+03,3.546286365130113154e+02,5.612267356946779273e+02,-1.000889308987820641e+03,2.045743034530672503e+03,9.484992027282714844e+00,1.529837548732757568e-01,-2.294756323099136353e-01,4.400000000000000000e+01
7.053780410301403663e+02,5.780028317563320570e+02,2.307335458417095197e+03,3.811403445823301809e+03,4.387624547963574742e+02,6.554765667353929075e+02,-1.555914914637607126e+03,2.171341952193868565e+03,9.484992027282714844e+00,1.529837548732757568e-01,-2.294756323099136353e-01,4.500000000000000000e+01
8.759184410479811049e+02,7.591293023203353414e+02,2.476436944289663188e+03,3.799799215901849948e+03,5.856433032572608681e+02,8.218440880402780522e+02,-1.992624946362906030e+03,2.366697698156439401e+03,9.484992027282714844e+00,1.529837548732757568e-01,-2.294756323099136353e-01,4.600000000000000000e+01
9.942575568179588572e+02,8.800538502894399926e+02,2.597087778111831994e+03,3.875681520052441101e+03,6.980132162434778138e+02,9.351508314054758557e+02,-1.440400795938488500e+03,2.463400954201937566e+03,9.484992027282714844e+00,1.529837548732757568e-01,-2.294756323099136353e-01,4.700000000000000000e+01
1.023542180687404425e+03,9.021481322148887330e+02,2.622921648453951093e+03,4.046739551433912766e+03,7.355527436083015118e+02,9.532603728618641981e+02,-1.617585733089945279e+03,2.434912194509221536e+03,9.484992027282714844e+00,1.529837548732757568e-01,-2.294756323099136353e-01,4.800000000000000000e+01
1.053240856768225967e+03,9.234597522529350044e+02,2.640356036822798160e+03,4.175401591323511639e+03,7.654787883169842644e+02,9.688739766074378394e+02,-4.025149572917172009e+03,2.428769791447002717e+03,9.484992027282714844e+00,1.529837548732757568e-01,-2.294756323099136353e-01,4.900000000000000000e+01
1.160903245129959032e+03,1.030056853241035924e+03,2.739894887048225883e+03,4.196816134190861703e+03,8.554634684652028227e+02,1.066707747687147275e+03,-4.923034883240351519e+03,2.552050928031773765e+03,9.484992027282714844e+00,1.529837548732757568e-01,-2.294756323099136353e-01,5.000000000000000000e+01
1.311719050583838452e+03,1.186368565277713969e+03,2.894624283168760940e+03,4.197087882528458977e+03,9.852596203683749536e+02,1.213175117169162604e+03,4.183473551128508916e+02,2.728457211404910140e+03,9.484992027282714844e+00,1.529837548732757568e-01,-2.294756323099136353e-01,5.100000000000000000e+01
1.413969137019212440e+03,1.291786131689527565e+03,3.001535163123050097e+03,4.277748445568606257e+03,1.082270585041598906e+03,1.311721815513945330e+03,9.099954275446294560e+03,2.810725842533611740e+03,9.446745872497558594e+00,1.912296712398529053e-01,-1.529837548732757568e-01,5.200000000000000000e+01
1.439995563837261216e+03,1.312985278007262878e+03,3.020338225447893819e+03,4.423631711795864248e+03,1.117507879859013883e+03,1.331530621170366203e+03,1.343069178396725692e+04,2.781083629343837401e+03,9.446745872497558594e+00,1.912296712398529053e-01,-1.529837548732757568e-01,5.300000000000000000e+01
1.458312450046976892e+03,1.324343205386915542e+03,3.025745632834469689e+03,4.535348745443143343e+03,1.139640358710851615e+03,1.343630027301426708e+03,1.193824700380081777e+04,2.770861323213125615e+03,9.446745872497558594e+00,1.912296712398529053e-01,-1.529837548732757568e-01,5.400000000000000000e+01
1.548032492058909611e+03,1.414400144659819489e+03,3.110376190945890357e+03,4.549902504935609613e+03,1.215663940778504639e+03,1.430687499732288416e+03,1.012276709044116433e+04,2.884525269533918163e+03,9.446745872497558594e+00,1.912296712398529053e-01,-1.529837548732757568e-01,5.500000000000000000e+01
1.685343750843797579e+03,1.557377072899929317e+03,3.254379637594278392e+03,4.533787699102177612e+03,1.335457467797120898e+03,1.568948502498362814e+03,1.086605422151468883e+04,3.053133158915765762e+03,9.446745872497558594e+00,1.912296712398529053e-01,-1.529837548732757568e-01,5.600000000000000000e+01
1.778227962560433753e+03,1.649091924777572785e+03,3.353663438748706540e+03,4.590670420337080941e+03,1.427081609277927555e+03,1.660534794932910245e+03,1.139652554517854151e+04,3.129682546759686829e+03,9.446745872497558594e+00,1.912296712398529053e-01,-1.529837548732757568e-01,5.700000000000000000e+01
1.795384165765972284e+03,1.653450658612442339e+03,3.364004652762754176e+03,4.719746545302637969e+03,1.456443122701570701e+03,1.668394241426024109e+03,9.984475392663098319e+03,3.091649742250631789e+03,9.446745872497558594e+00,1.912296712398529053e-01,-1.529837548732757568e-01,5.800000000000000000e+01
1.809127385192447491e+03,1.652648372627277695e+03,3.360997216344508615e+03,4.818091781312104104e+03,1.473926876612179740e+03,1.668207024143888702e+03,8.715311651859396079e+03,3.071699099893445691e+03,9.446745872497558594e+00,1.912296712398529053e-01,-1.529837548732757568e-01,5.900000000000000000e+01
1.894463446329372800e+03,1.731993338643986135e+03,3.434335578045891452e+03,4.822167688933291174e+03,1.544815646246651113e+03,1.745322821511850407e+03,8.927261293318972093e+03,3.174883128230541388e+03,9.446745872497558594e+00,1.912296712398529053e-01,-1.529837548732757568e-01,6.000000000000000000e+01
2.025428589942484905e+03,1.862769321603235312e+03,3.563796157813013906e+03,4.795138273281363581e+03,1.659080857792479719e+03,1.877693935792668071e+03,9.220656075813003554e+03,3.334065307043801567e+03,9.446745872497558594e+00,1.912296712398529053e-01,-1.529837548732757568e-01,6.100000000000000000e+01
2.110577710165509870e+03,1.944724757338847894e+03,3.647699025024855928e+03,4.840490103088430260e+03,1.744335067045261439e+03,1.965480288873963900e+03,8.568081691618390323e+03,3.402233138151309959e+03,9.446745872497558594e+00,1.912296712398529053e-01,-1.529837548732757568e-01,6.200000000000000000e+01
2.117855730426482296e+03,1.945874715632678317e+03,3.644081392293535828e+03,4.959136547863703527e+03,1.765169699527845751e+03,1.967490123443408265e+03,7.652055325537323370e+03,3.354950173093146077e+03,9.446745872497558594e+00,1.912296712398529053e-01,-1.529837548732757568e-01,6.300000000000000000e+01
2.118129352155960532e+03,1.945908669402301257e+03,3.629284247691728069e+03,5.047368985410021196e+03,1.772269929168434373e+03,1.957330963739328809e+03,7.064916740684244360e+03,3.324031535563668058e+03,9.446745872497558594e+00,1.912296712398529053e-01,-1.529837548732757568e-01,6.400000000000000000e+01
2.188430542414052070e+03,2.025366800339095334e+03,3.692674140293767778e+03,5.040660132375453031e+03,1.832374330620053115e+03,2.021693722012520539e+03,6.724395069943467206e+03,3.415522110224039352e+03,9.446745872497558594e+00,1.912296712398529053e-01,-1.529837548732757568e-01,6.500000000000000000e+01
2.307357443714990950e+03,2.153975635219190735e+03,3.813279595295739455e+03,5.003904288230256498e+03,1.935661635433447600e+03,2.140627531802248996e+03,6.612918610549263576e+03,3.563032314030715952e+03,9.446745872497558594e+00,1.912296712398529053e-01,-1.529837548732757568e-01,6.600000000000000000e+01
2.385765629287878255e+03,2.231656131499483308e+03,3.889253320875284771e+03,5.041029170909680033e+03,2.009595402448752793e+03,2.215406087194822248e+03,6.471788205363186535e+03,3.619661340099359677e+03,9.446745872497558594e+00,1.912296712398529053e-01,-1.529837548732757568e-01,6.700000000000000000e+01
2.390266262473044208e+03,2.226404048157641228e+03,3.878853941568228947e+03,5.150129015285743662e+03,2.019935682772124437e+03,2.206066511571943010e+03,5.707095419047437645e+03,3.562000915797195830e+03,9.446745872497558594e+00,1.912296712398529053e-01,-1.529837548732757568e-01,6.800000000000000000e+01
2.388422833018794790e+03,2.218522158637572829e+03,3.857145797641163426e+03,5.227189754939935483e+03,2.018015868731795308e+03,2.187645529502138743e+03,4.613429010027376535e+03,3.522961960545676448e+03,9.446745872497558594e+00,1.912296712398529053e-01,-1.529837548732757568e-01,6.900000000000000000e+01
2.453135520384483243e+03,2.289014944808408472e+03,3.911162404325265925e+03,5.211518454694142747e+03,2.069389549603591149e+03,2.246493773537954439e+03,4.276934169824905439e+03,3.607363041993528896e+03,9.446745872497558594e+00,1.912296712398529053e-01,-1.529837548732757568e-01,7.000000000000000000e+01
2.560320429045298624e+03,2.406975260440579859e+03,4.020047740081658958e+03,5.168911602376201699e+03,2.163574170950305870e+03,2.360883842242550145e+03,4.603896146016517378e+03,3.746504432947815530e+03,9.446745872497558594e+00,1.912296712398529053e-01,-1.529837548732757568e-01,7.100000000000000000e+01
2.622830803506016309e+03,2.472771725891738242e+03,4.084744125579860793e+03,5.199452112448781918e+03,2.228870964987873776e+03,2.432024100781311517e+03,4.262467440543093289e+03,3.793759164032948320e+03,9.446745872497558594e+00,1.912296712398529053e-01,-1.529837548732757568e-01,7.200000000000000000e+01
2.612608398365210178e+03,2.456330245863784512e+03,4.064755509082853223e+03,5.299861661739895681e+03,2.231173796403305460e+03,2.421565194924973639e+03,3.082711922803644484e+03,3.728068409347180477e+03,9.446745872497558594e+00,1.912296712398529053e-01,-1.529837548732757568e-01,7.300000000000000000e+01
2.600275949324335670e+03,2.437871800198652636e+03,4.033719382826957826e+03,5.368806038257522232e+03,2.221304671812893957e+03,2.403420612690249527e+03,2.344430225241790140e+03,3.682711643795929376e+03,9.446745872497558594e+00,1.912296712398529053e-01,-1.529837548732757568e-01,7.400000000000000000e+01
2.657658627451864049e+03,2.496312924460884005e+03,4.078327918069376665e+03,5.345768869626902415e+03,2.265900206910598172e+03,2.459082966988156841e+03,2.318674538165793365e+03,3.760671615920572549e+03,9.446745872497558594e+00,1.912296712398529053e-01,-1.529837548732757568e-01,7.500000000000000000e+01
2.758996195006535345e+03,2.601120807465458256e+03,4.179753546051505509e+03,5.293721440047514079e+03,2.356048613250147355e+03,2.564094380460067896e+03,2.043473289529345038e+03,3.893116506784183002e+03,9.446745872497558594e+00,1.912296712398529053e-01,-1.529837548732757568e-01,7.600000000000000000e+01
2.816891221235830926e+03,2.655348973782438861e+03,4.240134176881868370e+03,5.313095370717493097e+03,2.419347868322925933e+03,2.622889876741041917e+03,1.654380267198724141e+03,3.935244432207230147e+03,9.446745872497558594e+00,1.912296712398529053e-01,-1.529837548732757568e-01,7.700000000000000000e+01
2.802815630946928195e+03,2.629301074210947718e+03,4.217571747355506886e+03,5.403699393309091647e+03,2.419562296747715209e+03,2.601418133640210726e+03,1.934396067585399578e+03,3.865506921184794464e+03,9.446745872497558594e+00,1.912296712398529053e-01,-1.529837548732757568e-01,7.800000000000000000e+01
2.785908080673259974e+03,2.602280646133336177e+03,4.183317138801308829e+03,5.464426326769924344e+03,2.406083554090419966e+03,2.573665408465831661e+03,1.835243239422976330e+03,3.813976403940278033e+03,9.446745872497558594e+00,1.912296712398529053e-01,-1.529837548732757568e-01,7.900000000000000000e+01
2.836819101246999708e+03,2.655611522750031327e+03,4.222248872737978672e+03,5.433172191706061312e+03,2.444534677129180636e+03,2.620020700072741420e+03,2.535996597058565385e+02,3.882891864625041308e+03,9.446745872497558594e+00,1.912296712398529053e-01,-1.529837548732757568e-01,8.000000000000000000e+01
2.929981495412812819e+03,2.761506820373645951e+03,4.314912490375986636e+03,5.373777311891494719e+03,2.525588703145243926e+03,2.718075336773084928e+03,-2.786993134159019974e+02,4.006794840125458450e+03,9.446745872497558594e+00,1.912296712398529053e-01,-1.529837548732757568e-01,8.100000000000000000e+01
2.979724582717843077e+03,2.819792401497224091e+03,4.364504383374371173e+03,5.387687521285943149e+03,2.578654236923864573e+03,2.774014237817840694e+03,3.545716426676202900e+03,4.043218384740918282e+03,9.446745872497558594e+00,1.912296712398529053e-01,-1.529837548732757568e-01,8.200000000000000000e+01
2.959543556019299103e+03,2.795306553205517048e+03,4.331130511973894500e+03,5.472633661568486787e+03,2.570279048042214527e+03,2.751064649364746856e+03,9.771235114446393709e+03,3.968702132293268733e+03,9.484992027282714844e+00,1.912296712398529053e-01,-1.912296712398529053e-01,8.300000000000000000e+01
2.938094437084323545e+03,2.767576940321476741e+03,4.287200892516235399e+03,5.525963598699643626e+03,2.550347877760988467e+03,2.719834206315721531e+03,1.302562798702303007e+04,3.910628932082674055e+03,9.484992027282714844e+00,1.912296712398529053e-01,-1.912296712398529053e-01,8.400000000000000000e+01
2.983013571094189956e+03,2.820587498837332078e+03,4.317494997919617163e+03,5.487400848530961412e+03,2.583110477549437746e+03,2.761098131041515899e+03,1.213566161930685303e+04,3.971212264453368334e+03,9.484992027282714844e+00,1.912296712398529053e-01,-1.912296712398529053e-01,8.500000000000000000e+01
3.067685851748628011e+03,2.923834277439271773e+03,4.402131382218431099e+03,5.421775141321071715e+03,2.658773582076484672e+03,2.853560553008339411e+03,1.082820297523642694e+04,4.086495985721147918e+03,9.484992027282714844e+00,1.912296712398529053e-01,-1.912296712398529053e-01,8.600000000000000000e+01
3.108841248752108640e+03,2.973079479579927465e+03,4.443995979565415837e+03,5.428379859766457230e+03,2.707104723943108183e+03,2.902359401933205390e+03,1.125230900828719314e+04,4.115553118619714951e+03,9.484992027282714844e+00,1.912296712398529053e-01,-1.912296712398529053e-01,8.700000000000000000e+01
3.080968434571826947e+03,2.935960876005153295e+03,4.403249157683652811e+03,5.504197387276119116e+03,2.694442825595342583e+03,2.870770060544879925e+03,1.185769867580331265e+04,4.036553108176494788e+03,9.484992027282714844e+00,1.912296712398529053e-01,-1.912296712398529053e-01,8.800000000000000000e+01
3.051071727890684542e+03,2.897011100878768502e+03,4.353112972482706027e+03,5.549098325078193739e+03,2.670458197770492006e+03,2.831778308417593962e+03,1.150226562120967901e+04,3.976998710041012600e+03,9.484992027282714844e+00,1.912296712398529053e-01,-1.912296712398529053e-01,8.900000000000000000e+01
3.088032293121911607e+03,2.938835222355362475e+03,4.379010812658050781e+03,5.503918750547796662e+03,2.699483886313093535e+03,2.866772590778861741e+03,1.112704098494096252e+04,4.036069789513161595e+03,9.484992027282714844e+00,1.912296712398529053e-01,-1.912296712398529053e-01,9.000000000000000000e+01
3.169085556864240061e+03,3.028394727035285541e+03,4.460062797501887871e+03,5.431418465507880683e+03,2.771080435374774424e+03,2.953093467066224093e+03,1.126316471240282044e+04,4.146644167399479556e+03,9.484992027282714844e+00,1.912296712398529053e-01,-1.912296712398529053e-01,9.100000000000000000e+01
3.209513946550384844e+03,3.066349023433624552e+03,4.497453857071375751e+03,5.429990989335838094e+03,2.814241480027912985e+03,2.996743252382433639e+03,1.128396538928384143e+04,4.168585511010701339e+03,9.484992027282714844e+00,1.912296712398529053e-01,-1.912296712398529053e-01,9.200000000000000000e+01
3.177889749497702269e+03,3.025950211624494386e+03,4.451340112977262834e+03,5.498655063092567616e+03,2.795726437840349718e+03,2.962673915193724042e+03,1.107274885159146652e+04,4.082916665222986921e+03,9.484992027282714844e+00,1.912296712398529053e-01,-1.912296712398529053e-01,9.300000000000000000e+01
3.141170434282220413e+03,2.987722610896524202e+03,4.396483997706218361e+03,5.538587266871240899e+03,2.765571099468303601e+03,2.921460041192308836e+03,1.108961864137805242e+04,4.017284876992611316e+03,9.484992027282714844e+00,1.912296712398529053e-01,-1.912296712398529053e-01,9.400000000000000000e+01
3.174130029179455505e+03,3.026774831802993958e+03,4.418956339398042473e+03,5.489203090614422763e+03,2.787384741315958308e+03,2.950646898515503835e+03,1.119209492203551235e+04,4.068892818378353695e+03,9.484992027282714844e+00,1.912296712398529053e-01,-1.912296712398529053e-01,9.500000000000000000e+01
3.254924324804311254e+03,3.110588928320761624e+03,4.497050028400139126e+03,5.411561311314093473e+03,2.851263429412094411e+03,3.028581829126347657e+03,1.098133419388189395e+04,4.170852070281343913e+03,9.484992027282714844e+00,1.912296712398529053e-01,-1.912296712398529053e-01,9.600000000000000000e+01
3.293852523774443398e+03,3.144717950507630576e+03,4.531255591089115114e+03,5.404125279544956356e+03,2.888972059763689685e+03,3.065269154495174462e+03,1.070599382018272809e+04,4.185491515329431422e+03,9.484992027282714844e+00,1.912296712398529053e-01,-1.912296712398529053e-01,9.700000000000000000e+01
3.257997531996569251e+03,3.101519647465852358e+03,4.481495178703329657e+03,5.466922819630270169e+03,2.868703682766292786e+03,3.026652653742179155e+03,1.077140871402853554e+04,4.094617028899725938e+03,9.484992027282714844e+00,1.912296712398529053e-01,-1.912296712398529053e-01,9.800000000000000000e+01
3.216418975425185181e+03,3.056720005827766727e+03,4.421686608019138475e+03,5.501635600595835058e+03,2.838724152147154655e+03,2.981980693724693083e+03,1.096286980523481179e+04,4.024508502382017468e+03,9.484992027282714844e+00,1.912296712398529053e-01,-1.912296712398529053e-01,9.900000000000000000e+01
3.242471519800315036e+03,3.085140243985518737e+03,4.437193524792694006e+03,5.447552590343299926e+03,2.860773906565728794e+03,3.008907105489547575e+03,1.083927175865319805e+04,4.072224867105710473e+03,9.484992027282714844e+00,1.912296712398529053e-01,-1.912296712398529053e-01,1.000000000000000000e+02
3.312315791389511560e+03,3.158760490654530713e+03,4.507608124532547663e+03,5.365928705910954704e+03,2.924659725052651538e+03,3.085941912706256971e+03,1.046744391850409193e+04,4.172385334960746150e+03,9.484992027282714844e+00,1.912296712398529053e-01,-1.912296712398529053e-01,1.010000000000000000e+02
3.340408353443507622e+03,3.186971664110808888e+03,4.535676954981514427e+03,5.356301252102618491e+03,2.961239179286326362e+03,3.121187023188258991e+03,1.035004830411293733e+04,4.187206703766460123e+03,9.484992027282714844e+00,1.912296712398529053e-01,-1.912296712398529053e-01,1.020000000000000000e+02
3.298620495610948183e+03,3.143022280424783730e+03,4.481400290596318882e+03,5.419468234622343516e+03,2.936957680799894661e+03,3.079358428565394661e+03,1.076915485047591028e+04,4.096086217123611277e+03,9.484992027282714844e+00,1.912296712398529053e-01,-1.912296712398529053e-01,1.030000000000000000e+02
3.253704107379762263e+03,3.101220197007774004e+03,4.416773750622712214e+03,5.455980351719736973e+03,2.899979672440741524e+03,3.030915549354269842e+03,1.138268315949772477e+04,4.023508954107151567e+03,9.484992027282714844e+00,1.912296712398529053e-01,-1.529837548732757568e-01,1.040000000000000000e+02
3.275214804165734222e+03,3.133758275192466499e+03,4.426660978478863399e+03,5.402641722413494790e+03,2.913280069750227085e+03,3.053873886513839352e+03,1.160387971939651288e+04,4.066177742652042070e+03,9.484992027282714844e+00,1.912296712398529053e-01,-1.529837548732757568e-01,1.050000000000000000e+02
3.341444679338491369e+03,3.210417915049232761e+03,4.492344195700949967e+03,5.318669366849892867e+03,2.967272095560025264e+03,3.124888690568523998e+03,1.136001383661124055e+04,4.158233062923252874e+03,9.484992027282714844e+00,1.912296712398529053e-01,-1.529837548732757568e-01,1.060000000000000000e+02
3.370035452738978620e+03,3.239053732128787942e+03,4.517589119571036463e+03,5.302398622428355338e+03,2.993957670007539491e+03,3.151720454341357254e+03,1.113598874414185411e+04,4.162296459829156447e+03,9.484992027282714844e+00,1.912296712398529053e-01,-1.529837548732757568e-01,1.070000000000000000e+02
3.331151872824736074e+03,3.191047134662204826e+03,4.461444296970889809e+03,5.354493592921830896e+03,2.962467133239342729e+03,3.101511854320663133e+03,1.120881121376475676e+04,4.060979834589446000e+03,9.484992027282714844e+00,1.912296712398529053e-01,-1.529837548732757568e-01,1.080000000000000000e+02
3.288878291158035609e+03,3.140328004658533246e+03,4.394276600755194522e+03,5.378125328593624545e+03,2.921753573591244731e+03,3.045950482881839889e+03,1.130967415285791321e+04,3.982054325388364305e+03,9.484992027282714844e+00,1.912296712398529053e-01,-1.529837548732757568e-01,1.090000000000000000e+02
3.312497380204339152e+03,3.162575432475741763e+03,4.399167807661700863e+03,5.314991512888138459e+03,2.931762172068016298e+03,3.061820134227423296e+03,1.116327226234949012e+04,4.021782488073281456e+03,9.484992027282714844e+00,1.912296712398529053e-01,-1.529837548732757568e-01,1.100000000000000000e+02
3.378660655070278608e+03,3.231612009886339820e+03,4.456001377862165100e+03,5.226753836103443973e+03,2.980667087901870673e+03,3.126135413303210953e+03,1.091057398983688108e+04,4.112315968666142908e+03,9.484992027282714844e+00,1.912296712398529053e-01,-1.529837548732757568e-01,1.110000000000000000e+02
3.401509191074514547e+03,3.255178329694152126e+03,4.470043378960401242e+03,5.209167399150011988e+03,3.002700591182968765e+03,3.149734562329291293e+03,1.081841651709390862e+04,4.116517639519723161e+03,9.484992027282714844e+00,1.912296712398529053e-01,-1.529837548732757568e-01,1.120000000000000000e+02
3.351236502761011707e+03,3.202564035518744731e+03,4.404771336464215892e+03,5.259438660928794889e+03,2.969891603293349817e+03,3.100844645782061434e+03,1.087268869838780302e+04,4.017353428612297648e+03,9.484992027282714844e+00,1.912296712398529053e-01,-1.529837548732757568e-01,1.130000000000000000e+02
3.295871998909260128e+03,3.148033618947994000e+03,4.332941910596982780e+03,5.280734741890071746e+03,2.930403760119540948e+03,3.048255923342767801e+03,1.088756418274540556e+04,3.940210364833649692e+03,9.484992027282714844e+00,1.912296712398529053e-01,-1.529837548732757568e-01,1.140000000000000000e+02
3.307503841738412120e+03,3.168153194296296988e+03,4.335541485223283416e+03,5.216116011651480221e+03,2.941898022349435450e+03,3.066203471103754509e+03,1.075605938219955351e+04,3.979545253234246047e+03,9.484992027282714844e+00,1.912296712398529053e-01,-1.529837548732757568e-01,1.150000000000000000e+02
3.364057067016324709e+03,3.234851805753602093e+03,4.390381323893871013e+03,5.126405365589487701e+03,2.992175972111379451e+03,3.131929471376977745e+03,1.054536672111832922e+04,4.069153939521110260e+03,9.484992027282714844e+00,1.912296712398529053e-01,-1.529837548732757568e-01,1.160000000000000000e+02
3.382234558684670901e+03,3.253627856546971543e+03,4.403824944037126443e+03,5.105809148122742045e+03,3.015512421744368112e+03,3.156068802877934104e+03,1.041875853044671021e+04,4.073155836358907436e+03,9.484992027282714844e+00,1.912296712398529053e-01,-1.529837548732757568e-01,1.170000000000000000e+02
3.333432572492415147e+03,3.194381099914936840e+03,4.340074843364936896e+03,5.152177795684850025e+03,2.982427659173270968e+03,3.105116090280296703e+03,1.044551820323582433e+04,3.972706875514707917e+03,9.484992027282714844e+00,1.912296712398529053e-01,-1.529837548732757568e-01,1.180000000000000000e+02
3.281744815543415370e+03,3.133166889522784913e+03,4.269820549959082200e+03,5.170031709154026430e+03,2.940248499000062566e+03,3.048213309575035964e+03,1.048790609235799639e+04,3.892080811684924811e+03,9.484992027282714844e+00,1.912296712398529053e-01,-1.529837548732757568e-01,1.190000000000000000e+02
3.294138485964055690e+03,3.147380863089226750e+03,4.272566121689257670e+03,5.101776997443364053e+03,2.948386811701239367e+03,3.062207324477796192e+03,1.037027353664993643e+04,3.927219813712423274e+03,9.484992027282714844e+00,1.912296712398529053e-01,-1.529837548732757568e-01,1.200000000000000000e+02
3.348133918232641918e+03,3.209515871657961725e+03,4.327042820908087378e+03,5.006984400231036489e+03,2.996414331217315521e+03,3.124790201195008649e+03,1.013832159378020697e+04,4.012595292847052406e+03,9.484992027282714844e+00,1.912296712398529053e-01,-1.529837548732757568e-01,1.210000000000000000e+02
3.362874313545448331e+03,3.225493454293797640e+03,4.339776911508779449e+03,4.980923253609471431e+03,3.017831092238820929e+03,3.144914315357623764e+03,1.000595291045526028e+04,4.011772971747534939e+03,9.484992027282714844e+00,1.912296712398529053e-01,-1.529837548732757568e-01,1.220000000000000000e+02
3.310340315669200663e+03,3.164545777119024478e+03,4.273269442745811830e+03,5.023803823810446374e+03,2.981511724259649782e+03,3.089543026089255363e+03,1.004486216197301837e+04,3.907156481794958836e+03,9.484992027282714844e+00,1.912296712398529053e-01,-1.529837548732757568e-01,1.230000000000000000e+02
3.254368532255951777e+03,3.101731842729976506e+03,4.197763392468347774e+03,5.040576021615783247e+03,2.934610067063025781e+03,3.029459696649235866e+03,1.008200048377249550e+04,3.824260104005559697e+03,9.484992027282714844e+00,1.912296712398529053e-01,-1.529837548732757568e-01,1.240000000000000000e+02
3.263327290186899972e+03,3.114209789875376373e+03,4.194540331211366720e+03,4.972070654406089488e+03,2.937068880213241755e+03,3.040243691320972175e+03,9.949986527485529223e+03,3.856872300211223774e+03,9.484992027282714844e+00,1.912296712398529053e-01,-1.529837548732757568e-01,1.250000000000000000e+02
3.315650975144228596e+03,3.174582157807847580e+03,4.243822638995701709e+03,4.876886425872952714e+03,2.978558016122864501e+03,3.097906062168114659e+03,9.718871121383344871e+03,3.937613885353602655e+03,9.484992027282714844e+00,1.912296712398529053e-01,-1.529837548732757568e-01,1.260000000000000000e+02
3.329247754039157371e+03,3.189521427536300052e+03,4.252411959121456675e+03,4.850531259106316611e+03,2.993308615306671072e+03,3.113587831603132145e+03,9.593017444451519623e+03,3.932527606678138000e+03,9.484992027282714844e+00,1.912296712398529053e-01,-1.529837548732757568e-01,1.270000000000000000e+02
3.275832822523660070e+03,3.130124458837738075e+03,4.182959593244976531e+03,4.892934232213624455e+03,2.951942041297238120e+03,3.056269082939527379e+03,9.630288596548889473e+03,3.825889088196237935e+03,9.484992027282714844e+00,1.912296712398529053e-01,-1.529837548732757568e-01,1.280000000000000000e+02
3.221264782334739721e+03,3.071920080548362876e+03,4.105697895476037957e+03,4.908050935828227011e+03,2.902050260699641967e+03,2.993449142275966551e+03,9.665559436831716084e+03,3.739845976916102700e+03,9.561484336853027344e+00,2.677215635776519775e-01,-1.529837548732757568e-01,1.290000000000000000e+02
3.234104463042092902e+03,3.089085303885754001e+03,4.101271677281133634e+03,4.836714547621991187e+03,2.901355624010538122e+03,2.997006426669187022e+03,9.537037886447886194e+03,3.765054620109493953e+03,9.561484336853027344e+00,2.677215635776519775e-01,-1.529837548732757568e-01,1.300000000000000000e+02
3.289507719986224402e+03,3.151035089665740998e+03,4.149305152987930342e+03,4.738589699709512388e+03,2.937176018056312387e+03,3.045171917842537823e+03,9.307497370738303289e+03,3.836669095632267272e+03,9.561484336853027344e+00,2.677215635776519775e-01,-1.529837548732757568e-01,1.310000000000000000e+02
3.303212512458192577e+03,3.164651329051233461e+03,4.156288705084396497e+03,4.709287046656776511e+03,2.944140416416838889e+03,3.053331986093470277e+03,9.178275241911394914e+03,3.824585018590129039e+03,9.561484336853027344e+00,2.677215635776519775e-01,-1.529837548732757568e-01,1.320000000000000000e+02
3.248374211184721389e+03,3.102789337390498076e+03,4.084363211315647277e+03,4.747643228966800052e+03,2.895128898664218013e+03,2.990768427481987146e+03,9.212035222722897743e+03,3.713334091545399133e+03,9.561484336853027344e+00,2.677215635776519775e-01,-1.529837548732757568e-01,1.330000000000000000e+02
3.192081884059854019e+03,3.041465470404506050e+03,4.003506779397965147e+03,4.757678466296847546e+03,2.839381520079523398e+03,2.924064393181005471e+03,9.244323470185225233e+03,3.624357361151288387e+03,9.561484336853027344e+00,2.677215635776519775e-01,-1.529837548732757568e-01,1.340000000000000000e+02
3.201535131164961058e+03,3.054970405571729316e+03,3.995012040621204051e+03,4.682111719502225242e+03,2.835646448965427680e+03,2.926819167462886981e+03,9.113006886810479045e+03,3.649185730321779829e+03,9.561484336853027344e+00,2.677215635776519775e-01,-1.529837548732757568e-01,1.350000000000000000e+02
3.251204406347957047e+03,3.113202274730012050e+03,4.039293597303071692e+03,4.581584787166844762e+03,2.872417599270017035e+03,2.977865768198648311e+03,8.882431273614974998e+03,3.722682436386335212e+03,9.561484336853027344e+00,2.677215635776519775e-01,-1.529837548732757568e-01,1.360000000000000000e+02
3.258819866535261099e+03,3.122739695462996679e+03,4.043156062083328834e+03,4.550256809110506765e+03,2.884003037279402633e+03,2.988709163130244178e+03,8.753875976706016445e+03,3.712094147145614897e+03,9.561484336853027344e+00,2.677215635776519775e-01,-1.529837548732757568e-01,1.370000000000000000e+02
3.198993047492278492e+03,3.056118623846251467e+03,3.969078586926623302e+03,4.585677836453884993e+03,2.840101147249748465e+03,2.924966459726340872e+03,8.787235165387595771e+03,3.600188856653490348e+03,9.561484336853027344e+00,2.677215635776519775e-01,-1.529837548732757568e-01,1.380000000000000000e+02
3.137476038960421647e+03,2.990327687596431133e+03,3.887158776129221678e+03,4.593053694344484938e+03,2.786665352281924243e+03,2.854651070056519529e+03,8.818876811677644582e+03,3.509240184601920191e+03,9.561484336853027344e+00,2.677215635776519775e-01,-1.529837548732757568e-01,1.390000000000000000e+02
3.140081476602945713e+03,2.999763080873744912e+03,3.877641659104392602e+03,4.516761858416870382e+03,2.782344339751939515e+03,2.855105044373091005e+03,8.688124909379288511e+03,3.532531300153115353e+03,9.561484336853027344e+00,2.677215635776519775e-01,-1.529837548732757568e-01,1.400000000000000000e+02
3.182488610711241563e+03,3.052494247519270175e+03,3.919680984804374930e+03,4.417062357888261431e+03,2.817454207142669020e+03,2.906690793000975646e+03,8.458781238668452716e+03,3.606284296796170565e+03,9.561484336853027344e+00,2.677215635776519775e-01,-1.529837548732757568e-01,1.410000000000000000e+02
3.184465275382249274e+03,3.055036336430517167e+03,3.920452702196455903e+03,4.387032445166811158e+03,2.827143303357183868e+03,2.920848395698785225e+03,8.330237498057675111e+03,3.598308854894683009e+03,9.561484336853027344e+00,2.677215635776519775e-01,-1.529837548732757568e-01,1.420000000000000000e+02
3.120825737100218703e+03,2.982441663479472027e+03,3.843667057933257638e+03,4.424361214537262640e+03,2.781425236362104442e+03,2.863404895550649599e+03,8.361462780827279857e+03,3.490454672591302369e+03,9.561484336853027344e+00,2.677215635776519775e-01,-1.529837548732757568e-01,1.430000000000000000e+02
3.056332905388812833e+03,2.911918705894886898e+03,3.759348581870765429e+03,4.434182643564439786e+03,2.727282686622465008e+03,2.801051732948727931e+03,8.389800376940676870e+03,3.403017420862560357e+03,9.561484336853027344e+00,2.677215635776519775e-01,-1.529837548732757568e-01,1.440000000000000000e+02
3.056688607905063236e+03,2.915684268750465890e+03,3.746966786193987446e+03,4.359210588628408914e+03,2.723505495027813595e+03,2.806850556982117723e+03,8.256600641077058754e+03,3.428022404756994547e+03,9.561484336853027344e+00,2.677215635776519775e-01,-1.529837548732757568e-01,1.450000000000000000e+02
3.098182492796124279e+03,2.963208219372695567e+03,3.786609583436134017e+03,4.258403042146155713e+03,2.758889600254266043e+03,2.857517272334004247e+03,8.026855784917015626e+03,3.501887003317134258e+03,9.561484336853027344e+00,2.677215635776519775e-01,-1.529837548732757568e-01,1.460000000000000000e+02
3.100423136982577034e+03,2.965082355599476159e+03,3.787769408633595503e+03,4.225324674435751149e+03,2.767937898446642066e+03,2.865345425420105585e+03,7.899101618546317695e+03,3.493135073715692670e+03,9.561484336853027344e+00,2.677215635776519775e-01,-1.529837548732757568e-01,1.470000000000000000e+02
3.037466470103766824e+03,2.895675704300913821e+03,3.714861620787059110e+03,4.258455188537387585e+03,2.721615482820262514e+03,2.799426351910910853e+03,7.931035166688843674e+03,3.383856778546138230e+03,9.561484336853027344e+00,2.677215635776519775e-01,-1.529837548732757568e-01,1.480000000000000000e+02
2.974042420907949690e+03,2.827825684868214012e+03,3.635849460876444937e+03,4.263600957723537249e+03,2.666703383419745478e+03,2.728060085841691034e+03,7.960918153263708518e+03,3.294013222096231402e+03,9.561484336853027344e+00,2.677215635776519775e-01,-1.529837548732757568e-01,1.490000000000000000e+02
2.976366086475729389e+03,2.833547850341572030e+03,3.627456421761672118e+03,4.185337090516786702e+03,2.660525020800813763e+03,2.725074343917862734e+03,7.831983475704786542e+03,3.315480632009634064e+03,9.561484336853027344e+00,2.677215635776519775e-01,-1.529837548732757568e-01,1.500000000000000000e+02
3.020520712709030249e+03,2.885169449584097492e+03,3.668395134247638453e+03,4.084037043124772026e+03,2.692139481587449154e+03,2.769479562971308951e+03,7.608400187916697178e+03,3.385295823750723684e+03,9.561484336853027344e+00,2.677215635776519775e-01,-1.529837548732757568e-01,1.510000000000000000e+02
3.025188590523494895e+03,2.892226742205540631e+03,3.668159706324608123e+03,4.051458978577735706e+03,2.697552625785086093e+03,2.775055505222172087e+03,7.485695995496178512e+03,3.372613105491143870e+03,9.561484336853027344e+00,2.677215635776519775e-01,-1.529837548732757568e-01,1.520000000000000000e+02
2.963581543138402594e+03,2.826224541252825020e+03,3.591982498922399827e+03,4.083561606098514858e+03,2.647524790702920654e+03,2.708916822114415481e+03,7.520616908546082414e+03,3.259430583288252819e+03,9.561484336853027344e+00,2.677215635776519775e-01,-1.529837548732757568e-01,1.530000000000000000e+02
2.899712091355120720e+03,2.761281528160881408e+03,3.509433897808916299e+03,4.087173413260221878e+03,2.588130495927462107e+03,2.636934325771912881e+03,7.553089122634808518e+03,3.165862809217625909e+03,9.561484336853027344e+00,2.677215635776519775e-01,-1.529837548732757568e-01,1.540000000000000000e+02
2.899564333775177602e+03,2.771168377571598739e+03,3.499065421529433024e+03,4.009115314162454979e+03,2.578100648891157107e+03,2.633115173846285870e+03,7.427040322914705030e+03,3.184497447213479973e+03,9.561484336853027344e+00,2.677215635776519775e-01,-1.529837548732757568e-01,1.550000000000000000e+02
2.940570441180193029e+03,2.825030699774603363e+03,3.540299207797969757e+03,3.908589477406262176e+03,2.607801729491987317e+03,2.676640763885784509e+03,7.205448284084417537e+03,3.252042544468631149e+03,9.484992027282714844e+00,1.529837548732757568e-01,-1.912296712398529053e-01,1.560000000000000000e+02
2.943482358832006412e+03,2.829414105607394049e+03,3.541685755540846003e+03,3.875073786050578747e+03,2.611948427182401247e+03,2.679731525329273609e+03,7.083396087378829179e+03,3.236814700267234002e+03,9.484992027282714844e+00,1.529837548732757568e-01,-1.912296712398529053e-01,1.570000000000000000e+02
2.881554127680037709e+03,2.758678550974083919e+03,3.466672646093506046e+03,3.905739868421042047e+03,2.560187425170611277e+03,2.609942491921253804e+03,7.118743597648168361e+03,3.122126169839009890e+03,9.484992027282714844e+00,1.529837548732757568e-01,-1.912296712398529053e-01,1.580000000000000000e+02
2.816627046186381904e+03,2.690383528907744221e+03,3.383237999782829320e+03,3.909807457060748675e+03,2.499667190007662612e+03,2.536719106440019459e+03,7.152372348475957551e+03,3.029885669818969745e+03,9.484992027282714844e+00,1.529837548732757568e-01,-1.912296712398529053e-01,1.590000000000000000e+02
2.813134429385341718e+03,2.696999485777558220e+03,3.369496339286555667e+03,3.833319401539621140e+03,2.489446285052048552e+03,2.535659236803129716e+03,7.028239530218488653e+03,3.050904486017515865e+03,9.484992027282714844e+00,1.529837548732757568e-01,-1.912296712398529053e-01,1.600000000000000000e+02
2.848663794220256023e+03,2.746297075018285796e+03,3.406394039165406411e+03,3.733521359600653795e+03,2.518627116821646268e+03,2.583554704453800241e+03,6.808733111706666023e+03,3.119270581433349435e+03,9.484992027282714844e+00,1.529837548732757568e-01,-1.912296712398529053e-01,1.610000000000000000e+02
2.844552105542037225e+03,2.747110771487888996e+03,3.405130592818938567e+03,3.700213633148875488e+03,2.522493883178054602e+03,2.590991422326930660e+03,6.687984454557434219e+03,3.105405160320641698e+03,9.484992027282714844e+00,1.529837548732757568e-01,-1.912296712398529053e-01,1.620000000000000000e+02
2.775003635580358605e+03,2.674351072186322199e+03,3.330181866071673994e+03,3.731354077698712445e+03,2.472692676025394576e+03,2.526683905393606437e+03,6.723498780915324460e+03,2.995971680712505076e+03,9.484992027282714844e+00,1.529837548732757568e-01,-1.912296712398529053e-01,1.630000000000000000e+02
2.703569538750881293e+03,2.601426376367681314e+03,3.247648182538850051e+03,3.735503941503645819e+03,2.415724476684976253e+03,2.460214981171049658e+03,6.757112943984293452e+03,2.910741871877898120e+03,9.484992027282714844e+00,1.529837548732757568e-01,-1.912296712398529053e-01,1.640000000000000000e+02
2.695349263258677183e+03,2.598844429678708821e+03,3.233179841395875883e+03,3.659093302161520569e+03,2.408295581063225654e+03,2.465123110124791310e+03,6.633628993352005637e+03,2.936549061612316109e+03,9.484992027282714844e+00,1.529837548732757568e-01,-1.912296712398529053e-01,1.650000000000000000e+02
2.726737570863353085e+03,2.639086616460530877e+03,3.267500529306591943e+03,3.561576765991180764e+03,2.439526894933131189e+03,2.517587770260219258e+03,6.414951471326066894e+03,3.008624361301893259e+03,9.484992027282714844e+00,1.529837548732757568e-01,-1.912296712398529053e-01,1.660000000000000000e+02
2.718859203030429853e+03,2.635858442002626816e+03,3.263471503825161562e+03,3.532776671456548684e+03,2.445892126093190200e+03,2.529635146047115995e+03,6.294618430174223249e+03,2.999851659342766197e+03,9.484992027282714844e+00,1.529837548732757568e-01,-1.912296712398529053e-01,1.670000000000000000e+02
2.648078125815367457e+03,2.563028599827960988e+03,3.186991235037690785e+03,3.567135285970412042e+03,2.398355050029264930e+03,2.469642984871141380e+03,6.330402778052170106e+03,2.894395758099531122e+03,9.484992027282714844e+00,1.529837548732757568e-01,-1.912296712398529053e-01,1.680000000000000000e+02
2.579231278579287391e+03,2.491440713364428120e+03,3.104737406502878912e+03,3.570586535102224843e+03,2.342716415573216636e+03,2.404052596073116547e+03,6.364357129188258114e+03,2.808895579237472248e+03,9.484992027282714844e+00,1.529837548732757568e-01,-1.912296712398529053e-01,1.690000000000000000e+02
2.575970761872757976e+03,2.492934462787588927e+03,3.092726922929892680e+03,3.490634384322539518e+03,2.336617282022913059e+03,2.404008437566175417e+03,6.241441567295449204e+03,2.831894225674146128e+03,9.484992027282714844e+00,1.529837548732757568e-01,-1.912296712398529053e-01,1.700000000000000000e+02
2.613351532750476963e+03,2.541160673901999871e+03,3.131451425473946074e+03,3.388865714135628878e+03,2.368882306031533517e+03,2.446522341683834384e+03,6.024434977249374242e+03,2.900691663261759913e+03,9.484992027282714844e+00,1.529837548732757568e-01,-1.912296712398529053e-01,1.710000000000000000e+02
2.612697675337473356e+03,2.545664430137632280e+03,3.132094813879465619e+03,3.355912912422740192e+03,2.374055836161905063e+03,2.446655621174177213e+03,5.907224023782982840e+03,2.886595432718269421e+03,9.484992027282714844e+00,1.529837548732757568e-01,-1.912296712398529053e-01,1.720000000000000000e+02
2.549564145858321808e+03,2.475719212651792532e+03,3.058449307534506261e+03,3.387013769652206065e+03,2.323342519938329133e+03,2.376047614433454783e+03,5.946432454930443782e+03,2.773423541907809977e+03,9.484992027282714844e+00,1.529837548732757568e-01,-1.912296712398529053e-01,1.730000000000000000e+02
2.486405636960587799e+03,2.403926915374034252e+03,2.976756955486213883e+03,3.389628575748964977e+03,2.264309362988116391e+03,2.303188004443563386e+03,5.983646528246440539e+03,2.681094920052288217e+03,9.484992027282714844e+00,1.529837548732757568e-01,-1.912296712398529053e-01,1.740000000000000000e+02
2.485893762634186260e+03,2.406352920355090191e+03,2.964180163705013911e+03,3.311447249210743394e+03,2.253638198349989580e+03,2.299288701623028373e+03,5.865050834646545809e+03,2.699564906803427675e+03,9.484992027282714844e+00,1.529837548732757568e-01,-1.912296712398529053e-01,1.750000000000000000e+02
2.524120268549254433e+03,2.456276579138364468e+03,3.001843012615198859e+03,3.212130578211726515e+03,2.278420706280757713e+03,2.340231964579407759e+03,5.653456484013405316e+03,2.764342620103146601e+03,9.484992027282714844e+00,1.529837548732757568e-01,-1.912296712398529053e-01,1.760000000000000000e+02
2.522995563863051757e+03,2.461149715819710309e+03,3.000539986016105104e+03,3.180813661364423751e+03,2.275516897274733310e+03,2.340257370631251433e+03,5.540712862096876052e+03,2.747222027791891833e+03,9.484992027282714844e+00,1.529837548732757568e-01,-1.912296712398529053e-01,1.770000000000000000e+02
2.457983372421594595e+03,2.392013579052140813e+03,2.924107675190754435e+03,3.213234188437911143e+03,2.219604969275602798e+03,2.270344154416002311e+03,5.582810204927532141e+03,2.634695649239135491e+03,9.484992027282714844e+00,1.529837548732757568e-01,-1.912296712398529053e-01,1.780000000000000000e+02
2.392631473857667515e+03,2.323110866581242590e+03,2.839430454536190155e+03,3.217471763667861524e+03,2.157686086299160252e+03,2.197735538577663647e+03,5.623099483523577874e+03,2.545689591314454447e+03,9.484992027282714844e+00,1.529837548732757568e-01,-1.912296712398529053e-01,1.790000000000000000e+02
2.391256167577748329e+03,2.326885644369744568e+03,2.823792768106210133e+03,3.140520778773037364e+03,2.144850207456747285e+03,2.193205549828890526e+03,5.508554049954138463e+03,2.566305595878387521e+03,9.484992027282714844e+00,1.529837548732757568e-01,-1.912296712398529053e-01,1.800000000000000000e+02
2.430005787259432509e+03,2.373239024628303468e+03,2.858526850036940687e+03,3.041621288695061594e+03,2.169869393577974279e+03,2.234229454656132930e+03,5.300727679977411753e+03,2.631457896058062943e+03,9.484992027282714844e+00,1.529837548732757568e-01,-1.912296712398529053e-01,1.810000000000000000e+02
2.429599719486745016e+03,2.372626507503174707e+03,2.855971514643269074e+03,3.010787002583585490e+03,2.170655340625481131e+03,2.236148365460424884e+03,5.190577161462203549e+03,2.615057253640102317e+03,9.484992027282714844e+00,1.529837548732757568e-01,-1.912296712398529053e-01,1.820000000000000000e+02
2.364745471470864686e+03,2.300383117175667394e+03,2.781350378634323988e+03,3.044306227443187709e+03,2.118774450085393710e+03,2.168283945550764656e+03,5.234180641117312916e+03,2.503375677055617416e+03,9.484992027282714844e+00,1.529837548732757568e-01,-1.912296712398529053e-01,1.830000000000000000e+02
2.298768158102191592e+03,2.229977432517976467e+03,2.700482867581220944e+03,3.049753097280910879e+03,2.058986419189240678e+03,2.096537439501042627e+03,5.275044633751743277e+03,2.413913926339951104e+03,9.484992027282714844e+00,1.529837548732757568e-01,-1.912296712398529053e-01,1.840000000000000000e+02
2.295832821060897459e+03,2.231482651921680826e+03,2.688257427740708408e+03,2.974140924870247090e+03,2.048596075398036191e+03,2.093829222306323572e+03,5.161185951214785746e+03,2.434457711228050812e+03,9.484992027282714844e+00,1.529837548732757568e-01,-1.912296712398529053e-01,1.850000000000000000e+02
2.332209267341688701e+03,2.275449777187870950e+03,2.724898749405552280e+03,2.877333735776533103e+03,2.078006366164745486e+03,2.139948778878380381e+03,4.955917170626991719e+03,2.502747664791861098e+03,9.484992027282714844e+00,1.529837548732757568e-01,-1.912296712398529053e-01,1.860000000000000000e+02
2.328659893253517112e+03,2.273219356218678513e+03,2.722869756496092577e+03,2.848879258560910785e+03,2.083063547033291798e+03,2.148745941875759854e+03,4.849768120699483006e+03,2.492138674125739271e+03,9.484992027282714844e+00,1.912296712398529053e-01,-3.059675097465515137e-01,1.870000000000000000e+02
2.259299469422447601e+03,2.198425910327123802e+03,2.647507018746906851e+03,2.884101273068798946e+03,2.034301814922952872e+03,2.086965351108842697e+03,4.895998353459350255e+03,2.386448863340965545e+03,9.484992027282714844e+00,1.912296712398529053e-01,-3.059675097465515137e-01,1.880000000000000000e+02
2.187381043346028946e+03,2.123005899493647121e+03,2.565317161647306875e+03,2.891094729525988896e+03,1.978595744976863443e+03,2.020327749084303377e+03,4.936981031559117582e+03,2.302578118616276697e+03,9.484992027282714844e+00,1.912296712398529053e-01,-3.059675097465515137e-01,1.890000000000000000e+02
2.178906510499295109e+03,2.117808920097226292e+03,2.552814443788860899e+03,2.817598999077539247e+03,1.973596822674101077e+03,2.021482136120360337e+03,4.822642424639250748e+03,2.328276417108051646e+03,9.484992027282714844e+00,1.912296712398529053e-01,-3.059675097465515137e-01,1.900000000000000000e+02
2.212739403338070133e+03,2.155226522085488796e+03,2.591042744899199988e+03,2.721981782726143592e+03,2.006711735340107680e+03,2.067918811629370339e+03,4.617794705767832056e+03,2.399504829442844311e+03,9.484992027282714844e+00,1.912296712398529053e-01,-3.059675097465515137e-01,1.910000000000000000e+02
2.210647552134797024e+03,2.149044370102881658e+03,2.591609486541985461e+03,2.691891848618606218e+03,2.012477635687836937e+03,2.073127515681992918e+03,4.512506558292012414e+03,2.388694334927161890e+03,9.484992027282714844e+00,1.912296712398529053e-01,-3.059675097465515137e-01,1.920000000000000000e+02
2.145626294874099131e+03,2.075717671633792179e+03,2.518845683502893735e+03,2.723790764541359295e+03,1.963436778995772784e+03,2.007320168334872960e+03,4.560114638790641038e+03,2.281897124570465166e+03,9.484992027282714844e+00,1.912296712398529053e-01,-3.059675097465515137e-01,1.930000000000000000e+02
2.078793579884842984e+03,2.007623410647311630e+03,2.438711755442274807e+03,2.728842955293124305e+03,1.907241608085974804e+03,1.938577727446363951e+03,4.604368402016706568e+03,2.197827310731095622e+03,9.484992027282714844e+00,1.912296712398529053e-01,-3.059675097465515137e-01,1.940000000000000000e+02
2.074174742803419122e+03,2.012097382648719304e+03,2.426711086029378293e+03,2.656112722244437009e+03,1.899759447980787627e+03,1.938043026292965806e+03,4.495282434753880807e+03,2.222687767161775810e+03,9.484992027282714844e+00,1.912296712398529053e-01,-3.059675097465515137e-01,1.950000000000000000e+02
2.109852570266556086e+03,2.057046975888763427e+03,2.463386852939710479e+03,2.563109038528788460e+03,1.928357081787657080e+03,1.981992059614057780e+03,4.295640803853009857e+03,2.291246503716934967e+03,9.484992027282714844e+00,1.912296712398529053e-01,-3.059675097465515137e-01,1.960000000000000000e+02
2.108349496582833581e+03,2.054535322711288700e+03,2.462351129985825082e+03,2.536455351807422630e+03,1.930413459673325633e+03,1.985364073880644355e+03,4.194008062070180131e+03,2.278163492563421642e+03,9.484992027282714844e+00,1.912296712398529053e-01,-3.059675097465515137e-01,1.970000000000000000e+02
2.043943415562604514e+03,1.982543234387988377e+03,2.390762319501546699e+03,2.571859256408528836e+03,1.879474446621848529e+03,1.918827518854377558e+03,4.244481410550328292e+03,2.170981336055286647e+03,9.484992027282714844e+00,1.912296712398529053e-01,-3.059675097465515137e-01,1.980000000000000000e+02
1.978626834868894321e+03,1.916005196309343319e+03,2.314564199736288629e+03,2.579367125624920845e+03,1.820541386473895273e+03,1.848137303323264860e+03,4.292176583456955996e+03,2.085694069372092144e+03,9.484992027282714844e+00,1.912296712398529053e-01,-3.059675097465515137e-01,1.990000000000000000e+02
1.977066369196811593e+03,1.923222158359511013e+03,2.306806427285001973e+03,2.507234801092086400e+03,1.808012242446282016e+03,1.843082999512374499e+03,4.186991048978333311e+03,2.106034808004102160e+03,9.484992027282714844e+00,1.912296712398529053e-01,-3.059675097465515137e-01,2.000000000000000000e+02
2.017209505204628840e+03,1.971132504478976898e+03,2.346503035113862097e+03,2.413568192862924661e+03,1.831901616457516866e+03,1.881841088970847068e+03,3.990689953558578054e+03,2.168958608273555001e+03,9.484992027282714844e+00,1.912296712398529053e-01,-3.059675097465515137e-01,2.010000000000000000e+02
2.019574561537587215e+03,1.971267196383861574e+03,2.347025483464914942e+03,2.386485659850261982e+03,1.832053173929057721e+03,1.881615206957063947e+03,3.891682526155536834e+03,2.152358308381850293e+03,9.484992027282714844e+00,1.912296712398529053e-01,-3.059675097465515137e-01,2.020000000000000000e+02
1.956235723598638742e+03,1.902078376094996656e+03,2.274898792228304046e+03,2.422532980111455345e+03,1.780521845958673111e+03,1.813143570630583326e+03,3.944682078351944256e+03,2.043503694342945892e+03,9.484992027282714844e+00,1.912296712398529053e-01,-3.059675097465515137e-01,2.030000000000000000e+02
1.889715782507350013e+03,1.837295866447927438e+03,2.195937394157514063e+03,2.431527580300530190e+03,1.720100088697751744e+03,1.741622369379330848e+03,3.995026603577884998e+03,1.956883267972878457e+03,9.484992027282714844e+00,1.912296712398529053e-01,-3.059675097465515137e-01,2.040000000000000000e+02
1.886663624303939287e+03,1.842994720360412884e+03,2.184919516069974179e+03,2.361582185392031533e+03,1.705953414177770810e+03,1.737680887539273044e+03,3.892816459293692787e+03,1.976957009920965220e+03,9.484992027282714844e+00,1.912296712398529053e-01,-3.059675097465515137e-01,2.050000000000000000e+02
1.925027450939458049e+03,1.887640439826801412e+03,2.222442515535442908e+03,2.271248920412822372e+03,1.729440423157557689e+03,1.780700105827148036e+03,3.700624679640337490e+03,2.041968049612200730e+03,9.484992027282714844e+00,1.912296712398529053e-01,-3.059675097465515137e-01,2.060000000000000000e+02
1.924731641864842459e+03,1.887012254206979833e+03,2.221476023734253886e+03,2.248390739323075650e+03,1.729590931413553790e+03,1.787539684744969691e+03,3.606655830279366455e+03,2.029240088481471957e+03,9.484992027282714844e+00,1.912296712398529053e-01,-3.059675097465515137e-01,2.070000000000000000e+02
1.860083442830963577e+03,1.819212360699200872e+03,2.148153926907760251e+03,2.288184031450792190e+03,1.678159345357859820e+03,1.727235618874577540e+03,3.663365042944497873e+03,1.924705285308783459e+03,9.484992027282714844e+00,1.529837548732757568e-01,-2.677215635776519775e-01,2.080000000000000000e+02
1.795978643926405312e+03,1.752714331338862848e+03,2.069464959635658033e+03,2.299846793337412691e+03,1.620017099199908444e+03,1.663092111457251576e+03,3.714674101947668532e+03,1.841815308412982176e+03,9.484992027282714844e+00,1.529837548732757568e-01,-2.677215635776519775e-01,2.090000000000000000e+02
1.796769726941814952e+03,1.751700086830074270e+03,2.060739254499558683e+03,2.232238674292328142e+03,1.610986513026547073e+03,1.663979515364645522e+03,3.612640905554804704e+03,1.863904347371334325e+03,9.484992027282714844e+00,1.529837548732757568e-01,-2.677215635776519775e-01,2.100000000000000000e+02
1.836296105509399013e+03,1.788521393845476723e+03,2.101053483763461827e+03,2.143670236496036978e+03,1.639577097020870951e+03,1.708328298505507973e+03,3.422301038987451648e+03,1.929219005552451335e+03,9.484992027282714844e+00,1.529837548732757568e-01,-2.677215635776519775e-01,2.110000000000000000e+02
1.834623354945095343e+03,1.782274817072553560e+03,2.101951102258737137e+03,2.120342623875456411e+03,1.642902568530435929e+03,1.714244774359124222e+03,3.331188943425768230e+03,1.917413474400129644e+03,9.484992027282714844e+00,1.529837548732757568e-01,-2.677215635776519775e-01,2.120000000000000000e+02
1.768621083725673543e+03,1.711186758069834696e+03,2.029688374394033872e+03,2.157455161749886429e+03,1.594514996729090399e+03,1.653417115602329886e+03,3.389947075933898304e+03,1.816484858925679873e+03,9.484992027282714844e+00,1.529837548732757568e-01,-2.677215635776519775e-01,2.130000000000000000e+02
1.702505017796936954e+03,1.644303180307791990e+03,1.951444416755619386e+03,2.166683550253106205e+03,1.540794108352878084e+03,1.590119440156850942e+03,3.443114279449759579e+03,1.739051654889833344e+03,9.484992027282714844e+00,1.529837548732757568e-01,-2.677215635776519775e-01,2.140000000000000000e+02
1.698377478220638750e+03,1.647241750537263442e+03,1.942069448590032152e+03,2.098443311014894334e+03,1.535787942522426647e+03,1.591776794427044024e+03,3.344364833072528654e+03,1.766617981345100361e+03,9.484992027282714844e+00,1.529837548732757568e-01,-2.677215635776519775e-01,2.150000000000000000e+02
1.731600503813981959e+03,1.691066922850309538e+03,1.980876008407455174e+03,2.010520386664373746e+03,1.566218477439441131e+03,1.635631248980917007e+03,3.158238658054779080e+03,1.836867486880796150e+03,9.484992027282714844e+00,1.529837548732757568e-01,-2.677215635776519775e-01,2.160000000000000000e+02
1.726029499961656256e+03,1.690855875756421256e+03,1.980808090229304071e+03,1.988835947449105788e+03,1.570248903484208995e+03,1.640190379011278765e+03,3.070861678951419890e+03,1.828833362239014832e+03,9.484992027282714844e+00,1.529837548732757568e-01,-2.677215635776519775e-01,2.170000000000000000e+02
1.659330945827794494e+03,1.621910192652067281e+03,1.909367542043070443e+03,2.028750241761040343e+03,1.523068839983890484e+03,1.577695676891135690e+03,3.133242084264196819e+03,1.729371034234385661e+03,9.484992027282714844e+00,1.529837548732757568e-01,-2.677215635776519775e-01,2.180000000000000000e+02
1.593933847236137353e+03,1.553638760542753289e+03,1.833907628387485829e+03,2.040631819431534495e+03,1.470948936242258924e+03,1.512371895612667004e+03,3.191021027748206507e+03,1.651803145210152707e+03,9.484992027282714844e+00,1.529837548732757568e-01,-2.677215635776519775e-01,2.190000000000000000e+02
1.591718930015166279e+03,1.554365426698287138e+03,1.828613214911247042e+03,1.973185353989864780e+03,1.467178747383034761e+03,1.511440971499273928e+03,3.097327122730935116e+03,1.679530538675702019e+03,9.484992027282714844e+00,1.529837548732757568e-01,-2.677215635776519775e-01,2.200000000000000000e+02
1.629652497105382054e+03,1.597687926712426361e+03,1.871998225608083203e+03,1.884394029893034713e+03,1.498113200839103001e+03,1.551570453397315532e+03,2.915156573545334140e+03,1.749417027968777802e+03,9.484992027282714844e+00,1.529837548732757568e-01,-2.677215635776519775e-01,2.210000000000000000e+02
1.632094372924590516e+03,1.599020597114634256e+03,1.876643328360618398e+03,1.861271274938755596e+03,1.501295645706816686e+03,1.550853984863187634e+03,2.830146112118694873e+03,1.737805945122078583e+03,9.484992027282714844e+00,1.529837548732757568e-01,-2.677215635776519775e-01,2.220000000000000000e+02
1.575085335714135226e+03,1.532605757978831662e+03,1.809621275883664111e+03,1.899452937186906865e+03,1.451350674632196615e+03,1.482997263958837493e+03,2.893875717481453648e+03,1.632183849431020008e+03,9.484992027282714844e+00,1.529837548732757568e-01,-2.677215635776519775e-01,2.230000000000000000e+02
1.518425596064181946e+03,1.467638037215071336e+03,1.736807067826379125e+03,1.909805561464147786e+03,1.395296584060878786e+03,1.414884499467354544e+03,2.952569556911658310e+03,1.549663135993703236e+03,9.484992027282714844e+00,1.529837548732757568e-01,-2.677215635776519775e-01,2.240000000000000000e+02
1.521529356693287582e+03,1.472580566125503992e+03,1.730971488350113987e+03,1.842209038584472864e+03,1.388138154511368612e+03,1.414601933478928231e+03,2.860006751560420980e+03,1.575174854314533150e+03,9.484992027282714844e+00,1.529837548732757568e-01,-2.677215635776519775e-01,2.250000000000000000e+02
1.560194294987667718e+03,1.519704655262436063e+03,1.771797258884324947e+03,1.754667876729819682e+03,1.417648267454650068e+03,1.457537083967959006e+03,2.680214218993278337e+03,1.644221183193762499e+03,9.484992027282714844e+00,1.529837548732757568e-01,-2.677215635776519775e-01,2.260000000000000000e+02
1.559725715298501655e+03,1.522883576554895171e+03,1.774911892231464890e+03,1.733099745685538892e+03,1.422106828987423341e+03,1.460400256501542344e+03,2.599386305074064694e+03,1.632929905026333927e+03,9.484992027282714844e+00,1.529837548732757568e-01,-2.677215635776519775e-01,2.270000000000000000e+02
1.498451683145999141e+03,1.456690024504980101e+03,1.708481177251892404e+03,1.773208330352515077e+03,1.375639915819740281e+03,1.395493144943160360e+03,2.668316482914067819e+03,1.529326565320927557e+03,9.484992027282714844e+00,1.529837548732757568e-01,-2.677215635776519775e-01,2.280000000000000000e+02
1.437932643171496238e+03,1.391273788558703473e+03,1.636781386801655572e+03,1.786987156309730381e+03,1.322965548807836058e+03,1.328134419269679711e+03,2.731849554460043237e+03,1.448734814065043338e+03,9.484992027282714844e+00,1.529837548732757568e-01,-2.677215635776519775e-01,2.290000000000000000e+02
1.437872611547835731e+03,1.394934894607485148e+03,1.631723342358430273e+03,1.724277336696422935e+03,1.317129541460360542e+03,1.327450524025987761e+03,2.643248071301919936e+03,1.474720096134817595e+03,9.484992027282714844e+00,1.529837548732757568e-01,-2.677215635776519775e-01,2.300000000000000000e+02
1.473746809972937626e+03,1.439707694755803914e+03,1.673996345450143508e+03,1.641774651594381794e+03,1.347107182920578907e+03,1.373098517444742811e+03,2.466903247358632143e+03,1.545913564400939322e+03,9.484992027282714844e+00,1.529837548732757568e-01,-2.677215635776519775e-01,2.310000000000000000e+02
1.471392582505418432e+03,1.440240192996122914e+03,1.679199937863625109e+03,1.624344729392203590e+03,1.353432461553355552e+03,1.383984994249188276e+03,2.389103738636956678e+03,1.541777747422152061e+03,9.484992027282714844e+00,1.529837548732757568e-01,-2.677215635776519775e-01,2.320000000000000000e+02
1.410484828193002613e+03,1.372250781123185789e+03,1.613594342487513131e+03,1.667208987951252311e+03,1.309044741073225850e+03,1.328927972543285705e+03,2.460435447079309597e+03,1.447494495440952051e+03,9.484992027282714844e+00,1.912296712398529053e-01,-1.529837548732757568e-01,2.330000000000000000e+02
1.353045051270318254e+03,1.306948618406941023e+03,1.540625927839298129e+03,1.682203465173287441e+03,1.255440131019855471e+03,1.268202204825009176e+03,2.526227764135628604e+03,1.372541805500021837e+03,9.484992027282714844e+00,1.912296712398529053e-01,-1.529837548732757568e-01,2.340000000000000000e+02
1.357735610948546764e+03,1.313102111644449451e+03,1.533490761951936292e+03,1.619566125330041359e+03,1.245769286796225970e+03,1.269313208409524577e+03,2.440476390893434655e+03,1.398766746803253227e+03,9.484992027282714844e+00,1.912296712398529053e-01,-1.529837548732757568e-01,2.350000000000000000e+02
1.398968036875146026e+03,1.361511180100560523e+03,1.573809513849434097e+03,1.536442247819765726e+03,1.271921448600556687e+03,1.312749749429505300e+03,2.266938632149191108e+03,1.466583819929857782e+03,9.484992027282714844e+00,1.912296712398529053e-01,-1.529837548732757568e-01,2.360000000000000000e+02
1.401976351104593050e+03,1.364906441965162685e+03,1.577058686737076641e+03,1.517694997788185901e+03,1.275134201718255554e+03,1.318272606343220559e+03,2.190392089187189413e+03,1.456652238941608175e+03,9.484992027282714844e+00,1.912296712398529053e-01,-1.529837548732757568e-01,2.370000000000000000e+02
1.344618692768693109e+03,1.298832830378345079e+03,1.510510411363581170e+03,1.559089781164994292e+03,1.227422423335951862e+03,1.256512762006634148e+03,2.261447480217143493e+03,1.356107486427042204e+03,9.484992027282714844e+00,1.912296712398529053e-01,-1.529837548732757568e-01,2.380000000000000000e+02
1.286207725518032021e+03,1.235247053176251939e+03,1.439530814676329555e+03,1.574011656292692805e+03,1.172176037775021086e+03,1.191132316339470890e+03,2.327225148156739124e+03,1.278635567605150754e+03,9.484992027282714844e+00,1.912296712398529053e-01,-1.529837548732757568e-01,2.390000000000000000e+02
1.285277292126925204e+03,1.242322286179070034e+03,1.436752667380211278e+03,1.513452567967771756e+03,1.165248543580121350e+03,1.191741717166982198e+03,2.242716642080864403e+03,1.307970821778654226e+03,9.484992027282714844e+00,1.912296712398529053e-01,-1.529837548732757568e-01,2.400000000000000000e+02
1.319736565014380176e+03,1.290506622743623666e+03,1.480352083887960362e+03,1.433543001286751860e+03,1.196585592820975762e+03,1.237432864312469064e+03,2.070873271508286052e+03,1.381300976795488168e+03,9.484992027282714844e+00,1.912296712398529053e-01,-1.529837548732757568e-01,2.410000000000000000e+02
1.318145442425857254e+03,1.294224615358274150e+03,1.483595325730779678e+03,1.417891505655397850e+03,1.203090488222140266e+03,1.245232641558190153e+03,1.995745507799579173e+03,1.375809393167850430e+03,9.484992027282714844e+00,1.912296712398529053e-01,-1.529837548732757568e-01,2.420000000000000000e+02
1.258792096419047084e+03,1.229582477577052487e+03,1.415120369349886460e+03,1.461714071503824925e+03,1.156607183036589049e+03,1.185179938454833973e+03,2.068377619600320941e+03,1.278686384626414565e+03,9.484992027282714844e+00,1.912296712398529053e-01,-1.529837548732757568e-01,2.430000000000000000e+02
1.200402195953249247e+03,1.165760407454668893e+03,1.342777067738589722e+03,1.477849088958768334e+03,1.103517577544756932e+03,1.122256681818123980e+03,2.136295057670793540e+03,1.204087209832942335e+03,9.484992027282714844e+00,1.912296712398529053e-01,-1.529837548732757568e-01,2.440000000000000000e+02
1.201640911976345706e+03,1.169179983402009384e+03,1.340302011498532920e+03,1.417069781192164555e+03,1.100038780672091889e+03,1.126040026836913057e+03,2.054242406443765503e+03,1.234372869810160410e+03,9.484992027282714844e+00,1.912296712398529053e-01,-1.529837548732757568e-01,2.450000000000000000e+02
1.239705710752584309e+03,1.213037305730718799e+03,1.386269497711389704e+03,1.336447107507482542e+03,1.134180754850554877e+03,1.173385012296327659e+03,1.885043931859999248e+03,1.306378394623190616e+03,9.484992027282714844e+00,1.912296712398529053e-01,-1.529837548732757568e-01,2.460000000000000000e+02
1.241027424602176325e+03,1.215150871664064653e+03,1.394496699481936048e+03,1.320389601912046601e+03,1.142818220801351345e+03,1.179949380099104928e+03,1.812648188891555037e+03,1.299010618196062751e+03,9.484992027282714844e+00,1.912296712398529053e-01,-1.529837548732757568e-01,2.470000000000000000e+02
1.183282019898342696e+03,1.151422090185023990e+03,1.333138269742566081e+03,1.363487138751544990e+03,1.098857246799923814e+03,1.116954736180855434e+03,1.887346577177286235e+03,1.200338027500956741e+03,9.484992027282714844e+00,1.912296712398529053e-01,-1.529837548732757568e-01,2.480000000000000000e+02
1.127645212393389556e+03,1.089034026931151857e+03,1.267754269472934538e+03,1.378289531438524136e+03,1.047577558500624946e+03,1.050775897498453560e+03,1.956394581879119869e+03,1.124100982847486193e+03,9.484992027282714844e+00,1.912296712398529053e-01,-1.529837548732757568e-01,2.490000000000000000e+02
1.134837528847830981e+03,1.093663567008619793e+03,1.269561997481676372e+03,1.317120247178544560e+03,1.043257096775476384e+03,1.051189682336778787e+03,1.876181738452074569e+03,1.153395772105218384e+03,9.484992027282714844e+00,1.912296712398529053e-01,-1.529837548732757568e-01,2.500000000000000000e+02
1.179926922139977250e+03,1.138648035601205265e+03,1.316410220720561483e+03,1.238387002705769191e+03,1.074194926216418935e+03,1.096171249652771621e+03,1.711446308605627564e+03,1.226403646222276620e+03,9.484992027282714844e+00,1.912296712398529053e-01,-1.529837548732757568e-01,2.510000000000000000e+02
1.184982441363658836e+03,1.141985535780430837e+03,1.323339165698914258e+03,1.225868496351539761e+03,1.079232857202655396e+03,1.103824013499229295e+03,1.645624257411327562e+03,1.221487188707327732e+03,9.484992027282714844e+00,1.912296712398529053e-01,-1.529837548732757568e-01,2.520000000000000000e+02
1.126390622175073986e+03,1.080190707373559235e+03,1.260181741306384538e+03,1.273300354520246401e+03,1.032890127984263017e+03,1.045767366235227200e+03,1.726937661776928508e+03,1.125017941207887816e+03,9.484992027282714844e+00,1.912296712398529053e-01,-1.529837548732757568e-01,2.530000000000000000e+02
1.067856591087214838e+03,1.020730877839648201e+03,1.193266139235927767e+03,1.293297690140885607e+03,9.810508676448953338e+02,9.855891633366536553e+02,1.801805391677773514e+03,1.050132577229634990e+03,9.484992027282714844e+00,1.912296712398529053e-01,-1.529837548732757568e-01,2.540000000000000000e+02
1.071733299025822816e+03,1.027915602101006698e+03,1.193731630418060377e+03,1.237285977931815069e+03,9.774030157028182657e+02,9.904554358716022762e+02,1.726701226353994571e+03,1.080142831795661550e+03,9.484992027282714844e+00,1.912296712398529053e-01,-1.529837548732757568e-01,2.550000000000000000e+02
1.112171490228280163e+03,1.073462258607652984e+03,1.239528805630907300e+03,1.161472400930540061e+03,1.009282983514409352e+03,1.038084803221105176e+03,1.565339996948690896e+03,1.153550245015428118e+03,9.484992027282714844e+00,1.912296712398529053e-01,-1.529837548732757568e-01,2.560000000000000000e+02
1.112311740727649521e+03,1.076263137082672074e+03,1.246239122102017063e+03,1.149155011758488399e+03,1.016117870651240082e+03,1.047407827561868544e+03,1.500122805111870548e+03,1.149954315854154629e+03,9.484992027282714844e+00,1.912296712398529053e-01,-1.529837548732757568e-01,2.570000000000000000e+02
1.052999932771143904e+03,1.015875752471020860e+03,1.183650510638116430e+03,1.196340490131718980e+03,9.736293095506498503e+02,9.908674862403786392e+02,1.580710143176858764e+03,1.057045594400475238e+03,9.484992027282714844e+00,1.912296712398529053e-01,-1.529837548732757568e-01,2.580000000000000000e+02
9.992351303320847364e+02,9.613958901316927950e+02,1.117031838384969888e+03,1.217595756902755966e+03,9.262869742534148827e+02,9.327055739863681083e+02,1.656202488591750807e+03,9.867681109058830771e+02,9.484992027282714844e+00,1.912296712398529053e-01,-1.529837548732757568e-01,2.590000000000000000e+02
1.008064779732389070e+03,9.752056907470023361e+02,1.116788611148447671e+03,1.163960788779537324e+03,9.249452970056026970e+02,9.397577675517468379e+02,1.583817883939422245e+03,1.019376934554733452e+03,9.484992027282714844e+00,1.529837548732757568e-01,-1.912296712398529053e-01,2.600000000000000000e+02
1.048951533762750842e+03,1.025310006379350853e+03,1.161625280145872239e+03,1.090563621170422266e+03,9.570723528485868883e+02,9.886371829554245778e+02,1.426046821066704069e+03,1.092301672743225936e+03,9.484992027282714844e+00,1.529837548732757568e-01,-1.912296712398529053e-01,2.610000000000000000e+02
1.047145348079673568e+03,1.028300951329925738e+03,1.168347239194390568e+03,1.080298253526356348e+03,9.640017268771371164e+02,9.979920453476715920e+02,1.364137723808220471e+03,1.087001757625706887e+03,9.484992027282714844e+00,1.529837548732757568e-01,-1.912296712398529053e-01,2.620000000000000000e+02
9.874146624688255542e+02,9.641583126657196772e+02,1.106901418178890708e+03,1.128509885786395898e+03,9.206900222015956388e+02,9.404679135446913278e+02,1.447058924136224960e+03,9.929491585144860437e+02,9.484992027282714844e+00,1.529837548732757568e-01,-1.912296712398529053e-01,2.630000000000000000e+02
9.347030974281806266e+02,9.044138347363586945e+02,1.042086390237845990e+03,1.148740621151435334e+03,8.702141574243451032e+02,8.795281467172990233e+02,1.523537348350604589e+03,9.221122444590846499e+02,9.484992027282714844e+00,1.529837548732757568e-01,-1.912296712398529053e-01,2.640000000000000000e+02
9.454662664428942662e+02,9.145474638090090593e+02,1.044334910282901546e+03,1.092450695410881963e+03,8.657128600348351029e+02,8.817494901385398407e+02,1.451622159345031832e+03,9.542818760277514230e+02,9.484992027282714844e+00,1.529837548732757568e-01,-1.912296712398529053e-01,2.650000000000000000e+02
9.913003506946715788e+02,9.645906997219499317e+02,1.092323117064042890e+03,1.017016009321589081e+03,8.972063044845908735e+02,9.261354261398228118e+02,1.295308238432284270e+03,1.026791353548382176e+03,9.484992027282714844e+00,1.529837548732757568e-01,-1.912296712398529053e-01,2.660000000000000000e+02
9.971734104185998149e+02,9.705410205533717090e+02,1.101802441113164605e+03,1.007008414731482844e+03,9.042635312120855815e+02,9.341628147828068904e+02,1.235788382032755180e+03,1.020952565632120240e+03,9.484992027282714844e+00,1.529837548732757568e-01,-1.912296712398529053e-01,2.670000000000000000e+02
9.421488816966411832e+02,9.096597050465152279e+02,1.041578879328824769e+03,1.057163106648893518e+03,8.599113131069425435e+02,8.785429350066024199e+02,1.320640346605872764e+03,9.263485482525429688e+02,9.484992027282714844e+00,1.529837548732757568e-01,-1.912296712398529053e-01,2.680000000000000000e+02
8.869961451005929121e+02,8.510584854478893249e+02,9.763747158450805728e+02,1.079449815123663939e+03,8.093439594721639878e+02,8.210687373316231970e+02,1.398598623194893662e+03,8.557944345379255537e+02,9.484992027282714844e+00,1.529837548732757568e-01,-1.912296712398529053e-01,2.690000000000000000e+02
8.913192919925095339e+02,8.596053653176895750e+02,9.768902253228679911e+02,1.024754402861268318e+03,8.072411159381354082e+02,8.270097866504638660e+02,1.329186365461802779e+03,8.896813271054670622e+02,9.484992027282714844e+00,1.529837548732757568e-01,-1.912296712398529053e-01,2.700000000000000000e+02
9.324084674255245773e+02,9.061110448617309885e+02,1.022016971151793769e+03,9.505637811446285923e+02,8.413701749155243306e+02,8.739830215692236379e+02,1.176420842990542951e+03,9.647067794119138853e+02,9.484992027282714844e+00,1.529837548732757568e-01,-1.912296712398529053e-01,2.710000000000000000e+02
9.368736568873046053e+02,9.080890558239880193e+02,1.029204531156676239e+03,9.410044829316120740e+02,8.504949410924982658e+02,8.823536511649635941e+02,1.119652165903884452e+03,9.611203293722192029e+02,9.484992027282714844e+00,1.529837548732757568e-01,-1.912296712398529053e-01,2.720000000000000000e+02
8.824347774679281429e+02,8.444630619836771075e+02,9.702088882293173810e+02,9.902336942771180475e+02,8.102142860660405859e+02,8.259084307923876622e+02,1.205608123759160662e+03,8.680933400726116815e+02,9.484992027282714844e+00,1.529837548732757568e-01,-1.912296712398529053e-01,2.730000000000000000e+02
8.292887338903474301e+02,7.849543991967548209e+02,9.103598577176435356e+02,1.010787422200133733e+03,7.656566671411765128e+02,7.684753479872233584e+02,1.284194415574922459e+03,7.983816789799639082e+02,9.484992027282714844e+00,1.529837548732757568e-01,-1.912296712398529053e-01,2.740000000000000000e+02
8.367559152071189601e+02,7.939014307571778772e+02,9.173093424367034459e+02,9.549046950130450568e+02,7.677382960684262798e+02,7.751916024613055924e+02,1.216040502307521820e+03,8.322957094941848482e+02,9.484992027282714844e+00,1.529837548732757568e-01,-1.912296712398529053e-01,2.750000000000000000e+02
8.806726830077313934e+02,8.421066452968534577e+02,9.670944663230548031e+02,8.806096595207800419e+02,8.030837204577164812e+02,8.222234076639651903e+02,1.065024586642364739e+03,9.068510766381696158e+02,9.484992027282714844e+00,1.529837548732757568e-01,-1.912296712398529053e-01,2.760000000000000000e+02
8.868294765109985747e+02,8.477069148166301602e+02,9.773325621850817697e+02,8.713798445018255734e+02,8.125962683283214574e+02,8.299848928862975299e+02,1.010274978406014270e+03,9.028737719902019307e+02,9.484992027282714844e+00,1.529837548732757568e-01,-1.912296712398529053e-01,2.770000000000000000e+02
8.341847119020894752e+02,7.888264241003289499e+02,9.206836949540756905e+02,9.208512723986095807e+02,7.719811735923085507e+02,7.730151324615380872e+02,1.098822709359745204e+03,8.094750671537276503e+02,9.484992027282714844e+00,1.529837548732757568e-01,-1.912296712398529053e-01,2.780000000000000000e+02
7.838107820185159653e+02,7.332779348221192777e+02,8.620903869426529127e+02,9.422147318122952129e+02,7.250435907718638191e+02,7.148842922800577071e+02,1.180371415496221744e+03,7.389113409767724079e+02,9.484992027282714844e+00,1.529837548732757568e-01,-1.912296712398529053e-01,2.790000000000000000e+02
7.935457632307025051e+02,7.451621539804200438e+02,8.692429697983898222e+02,8.888497247313025582e+02,7.242915109519908583e+02,7.209638247391776531e+02,1.114668245289241895e+03,7.717774811213930661e+02,9.484992027282714844e+00,1.529837548732757568e-01,-1.912296712398529053e-01,2.800000000000000000e+02
8.376918532864401641e+02,7.961455229149032675e+02,9.192705649107410864e+02,8.187258528970596672e+02,7.586436592653117259e+02,7.688420449356635800e+02,9.655208613026115927e+02,8.461607571204258420e+02,9.484992027282714844e+00,1.529837548732757568e-01,-1.912296712398529053e-01,2.810000000000000000e+02
8.426624795237003127e+02,8.033061386158333335e+02,9.294887433267049346e+02,8.136865753902620781e+02,7.678061855004671088e+02,7.787969450920154486e+02,9.131174760452922783e+02,8.433755759560172010e+02,9.484992027282714844e+00,1.529837548732757568e-01,-1.912296712398529053e-01,2.820000000000000000e+02
7.881637210713051900e+02,7.434335343969087262e+02,8.708281921737416269e+02,8.659749591164436424e+02,7.255361363814445212e+02,7.231391573190667259e+02,1.004831565471195063e+03,7.519003507537963742e+02,9.484992027282714844e+00,1.529837548732757568e-01,-1.912296712398529053e-01,2.830000000000000000e+02
7.346057237949517003e+02,6.865147711911686201e+02,8.084289825208470575e+02,8.891378690169422043e+02,6.766574855256912997e+02,6.647057398319757340e+02,1.089359146414612042e+03,6.831103078253709100e+02,9.484992027282714844e+00,1.529837548732757568e-01,-1.912296712398529053e-01,2.840000000000000000e+02
7.404742994032894785e+02,6.993689676189569582e+02,8.124865755762730259e+02,8.374612043460347195e+02,6.750679956765288807e+02,6.707056260696972458e+02,1.025999922011887975e+03,7.171819805266568437e+02,9.484992027282714844e+00,1.529837548732757568e-01,-1.912296712398529053e-01,2.850000000000000000e+02
7.830403533437311125e+02,7.515794269421621721e+02,8.613251780392056389e+02,7.686930462962773163e+02,7.087726622236205003e+02,7.198140252460234478e+02,8.792134836055811320e+02,7.922221899720298097e+02,9.484992027282714844e+00,1.529837548732757568e-01,-1.912296712398529053e-01,2.860000000000000000e+02
7.899711260099393257e+02,7.568917111215178011e+02,8.712155532598408172e+02,7.642217513569303264e+02,7.166958209075019113e+02,7.313747648270218633e+02,8.288801361572805035e+02,7.899777893071495782e+02,9.484992027282714844e+00,1.529837548732757568e-01,-1.912296712398529053e-01,2.870000000000000000e+02
7.389510443411345477e+02,6.943278866388391179e+02,8.127835279325663578e+02,8.169781987875066989e+02,6.735933897509712551e+02,6.771856554874393623e+02,9.212845153330854373e+02,6.996424174797666637e+02,9.484992027282714844e+00,1.529837548732757568e-01,-1.912296712398529053e-01,2.880000000000000000e+02
6.890617270467409980e+02,6.382162760215232993e+02,7.522759408375004568e+02,8.411792034539685119e+02,6.250038482571690110e+02,6.206863052993703604e+02,1.006333574481188407e+03,6.328630571380053880e+02,9.484992027282714844e+00,1.529837548732757568e-01,-1.912296712398529053e-01,2.890000000000000000e+02
6.992508300211120513e+02,6.541206749314842455e+02,7.595604434370015952e+02,7.904663024381698051e+02,6.244979646954197960e+02,6.288050453858413675e+02,9.461822174660228484e+02,6.692437546602286602e+02,9.484992027282714844e+00,1.529837548732757568e-01,-1.912296712398529053e-01,2.900000000000000000e+02
7.454872115328544169e+02,7.075831751646292105e+02,8.108166581598561606e+02,7.219743701051484095e+02,6.601580211701020744e+02,6.790125541196430277e+02,8.049465534573901095e+02,7.462095865115152264e+02,9.523238182067871094e+00,2.294756323099136353e-01,-1.912296712398529053e-01,2.910000000000000000e+02
7.530184567575706751e+02,7.128136231973112444e+02,8.214683133196449489e+02,7.175734124829177745e+02,6.710761469038079667e+02,6.906095915032383346e+02,7.586405954749134253e+02,7.454456998776804539e+02,9.523238182067871094e+00,2.294756323099136353e-01,-1.912296712398529053e-01,2.920000000000000000e+02
7.003711473449620826e+02,6.511080300162320782e+02,7.633634914111098624e+02,7.704157698137678381e+02,6.310445764813739515e+02,6.366069002478252514e+02,8.517454757111045183e+02,6.563567327953423955e+02,9.523238182067871094e+00,2.294756323099136353e-01,-1.912296712398529053e-01,2.930000000000000000e+02
6.490746428851307428e+02,5.947875727098289644e+02,7.033128769909599214e+02,7.941761415755390772e+02,5.844073324653800228e+02,5.809751804122934118e+02,9.361888587622161140e+02,5.905897145588478452e+02,9.523238182067871094e+00,2.294756323099136353e-01,-1.912296712398529053e-01,2.940000000000000000e+02
6.573720018447202165e+02,6.070648076201323420e+02,7.103768880039133364e+02,7.428048447413020767e+02,5.845474827644175093e+02,5.900691758344437403e+02,8.755453012739963015e+02,6.277917854540573899e+02,9.523238182067871094e+00,2.294756323099136353e-01,-1.912296712398529053e-01,2.950000000000000000e+02
6.998321027623605914e+02,6.569816587676759809e+02,7.608613915785863355e+02,6.746792301184905227e+02,6.198282823093650222e+02,6.411249402695830213e+02,7.332146068968650070e+02,7.056215203120282240e+02,9.523238182067871094e+00,2.294756323099136353e-01,-1.912296712398529053e-01,2.960000000000000000e+02
7.042266485095133248e+02,6.636523080896986357e+02,7.713669596571126021e+02,6.720519433448062045e+02,6.298237477527363808e+02,6.540816996672838286e+02,6.857991123567480827e+02,7.057390146712514252e+02,9.523238182067871094e+00,2.294756323099136353e-01,-1.912296712398529053e-01,2.970000000000000000e+02
6.518316275036631851e+02,6.075394648025176139e+02,7.134682899996732885e+02,7.274876775021475623e+02,5.895781606253294740e+02,6.022648785895071342e+02,7.798487740700547874e+02,6.171832722357557941e+02,9.523238182067871094e+00,2.294756323099136353e-01,-1.912296712398529053e-01,2.980000000000000000e+02
6.021625907779853151e+02,5.568814818172140804e+02,6.525027750521112466e+02,7.541967266350038699e+02,5.444029454037699907e+02,5.487069862534845015e+02,8.670690566019402468e+02,5.514183178158127703e+02,9.523238182067871094e+00,2.294756323099136353e-01,-1.912296712398529053e-01,2.990000000000000000e+02
6.107307286565192044e+02,5.732286666490508651e+02,6.579902529502833204e+02,7.053550699451952823e+02,5.467018373932442046e+02,5.583380588950167294e+02,8.088259872142079985e+02,5.882627233470157080e+02,9.523238182067871094e+00,2.294756323099136353e-01,-1.912296712398529053e-01,3.000000000000000000e+02
6.537752625182474731e+02,6.253797957481947378e+02,7.087811580976158439e+02,6.380275209409664967e+02,5.832301430785810226e+02,6.079082633568650635e+02,6.682644130884909828e+02,6.657093169766376377e+02,9.523238182067871094e+00,2.294756323099136353e-01,-1.912296712398529053e-01,3.010000000000000000e+02
6.615412169148839894e+02,6.311631815216533141e+02,7.227814862875966355e+02,6.342871123954719224e+02,5.938501950171266799e+02,6.180428023497115646e+02,6.232823823777580401e+02,6.658987094418916968e+02,9.523238182067871094e+00,2.294756323099136353e-01,-1.912296712398529053e-01,3.020000000000000000e+02
6.140364795917776064e+02,5.710325192440213868e+02,6.703419165856212203e+02,6.879802802667582000e+02,5.548161172135223751e+02,5.629261519048122864e+02,7.196767868055176223e+02,5.780812857918099326e+02,9.523238182067871094e+00,2.294756323099136353e-01,-1.912296712398529053e-01,3.030000000000000000e+02
5.686280517187915393e+02,5.160832963036082219e+02,6.149774800048689940e+02,7.130551391387125477e+02,5.109182802463146800e+02,5.061822667069391173e+02,8.072595012512720132e+02,5.129664946459452040e+02,9.523238182067871094e+00,2.294756323099136353e-01,-1.912296712398529053e-01,3.040000000000000000e+02
5.812132536823919509e+02,5.305191857770150818e+02,6.250900900986962370e+02,6.625648796414607204e+02,5.133161475034285104e+02,5.136414561786878039e+02,7.481565754873881815e+02,5.492834182177102775e+02,9.523238182067871094e+00,2.294756323099136353e-01,-1.912296712398529053e-01,3.050000000000000000e+02
6.284957528871782415e+02,5.834392611839139136e+02,6.788758841712624417e+02,5.940797353690650198e+02,5.495896370885930082e+02,5.630412303609446099e+02,6.080574143973499304e+02,6.252606079086326645e+02,9.523238182067871094e+00,2.294756323099136353e-01,-1.912296712398529053e-01,3.060000000000000000e+02
6.389013697047776077e+02,5.919328096559947880e+02,6.941175108958123019e+02,5.902204335919232108e+02,5.612739216977897740e+02,5.748834140117178322e+02,5.652037803654166055e+02,6.245847478381365363e+02,9.523238182067871094e+00,2.294756323099136353e-01,-1.912296712398529053e-01,3.070000000000000000e+02
5.909069133359043917e+02,5.351230074138402415e+02,6.417640879306563875e+02,6.440353855396715517e+02,5.240663886246875336e+02,5.222593457701404986e+02,6.637165816346969223e+02,5.375097353399869462e+02,9.523238182067871094e+00,2.294756323099136353e-01,-1.912296712398529053e-01,3.080000000000000000e+02
5.432112225889795809e+02,4.816621247490693349e+02,5.861453122354505467e+02,6.688188214031906682e+02,4.812793837427598191e+02,4.681795677063455514e+02,7.531700645133169019e+02,4.743944509029133769e+02,9.523238182067871094e+00,2.294756323099136353e-01,-1.912296712398529053e-01,3.090000000000000000e+02
5.541046743723672989e+02,4.945389990916701208e+02,5.962259342615761852e+02,6.186608417996103526e+02,4.848776726855758170e+02,4.783217667535755027e+02,6.969969503343745600e+02,5.131861176760867238e+02,9.523238182067871094e+00,2.294756323099136353e-01,-1.912296712398529053e-01,3.100000000000000000e+02
6.006379675333955674e+02,5.451660113931357046e+02,6.502672041253972566e+02,5.519672167014941806e+02,5.239697928512905492e+02,5.296437024574479437e+02,5.609205769711843459e+02,5.915474447242304450e+02,9.523238182067871094e+00,2.294756323099136353e-01,-1.912296712398529053e-01,3.110000000000000000e+02
6.096848698295034410e+02,5.535744922320518526e+02,6.654757375365261396e+02,5.503893629102967680e+02,5.388471307548024924e+02,5.420341730199943413e+02,5.213659537916610134e+02,5.928004833728118683e+02,9.446745872497558594e+00,1.147378161549568176e-01,-1.912296712398529053e-01,3.120000000000000000e+02
5.591869794410522445e+02,4.986538552670754143e+02,6.124550417605569237e+02,6.059046488770545693e+02,5.026612813709580223e+02,4.894088111332057451e+02,6.215528080910298740e+02,5.071678791041122167e+02,9.446745872497558594e+00,1.147378161549568176e-01,-1.912296712398529053e-01,3.130000000000000000e+02
5.095591662988845201e+02,4.475706914929214690e+02,5.563148106176631700e+02,6.317732565217556839e+02,4.585117530260977219e+02,4.354248161840623652e+02,7.119640277611324564e+02,4.450829906669496268e+02,9.446745872497558594e+00,1.147378161549568176e-01,-1.912296712398529053e-01,3.140000000000000000e+02
5.204394801593807642e+02,4.637990417574328603e+02,5.664950542486294580e+02,5.818618735111231217e+02,4.597418065341153124e+02,4.445704304684986710e+02,6.568163684904502588e+02,4.842219110711230314e+02,9.446745872497558594e+00,1.147378161549568176e-01,-1.912296712398529053e-01,3.150000000000000000e+02
5.675635477672840352e+02,5.189340570864660549e+02,6.198663737242495699e+02,5.144201851909456309e+02,4.958973089127248386e+02,4.932937020331664826e+02,5.214665285183218657e+02,5.622523518435991718e+02,9.446745872497558594e+00,1.147378161549568176e-01,-1.912296712398529053e-01,3.160000000000000000e+02
5.760817690647163545e+02,5.301265864298984525e+02,6.324980756107615889e+02,5.126654488547974324e+02,5.076902950915500696e+02,5.040763015049669775e+02,4.823545673314365558e+02,5.635107268724023015e+02,9.446745872497558594e+00,1.147378161549568176e-01,-1.912296712398529053e-01,3.170000000000000000e+02
5.248348677632457111e+02,4.738816634127579164e+02,5.764957137321252958e+02,5.706323874741683539e+02,4.700717821519065183e+02,4.534583209941993118e+02,5.833026930311898468e+02,4.791126737767153827e+02,9.446745872497558594e+00,1.147378161549568176e-01,-1.912296712398529053e-01,3.180000000000000000e+02
4.758502936643490102e+02,4.193926806049130391e+02,5.187536143317374808e+02,6.013872107295865135e+02,4.271919845360243926e+02,4.041324793942294491e+02,6.746638641208846821e+02,4.188557375109812710e+02,9.446745872497558594e+00,1.147378161549568176e-01,-1.912296712398529053e-01,3.190000000000000000e+02
4.876864162350429979e+02,4.334168816419587529e+02,5.280686829921141907e+02,5.567963251011642569e+02,4.307298525985352171e+02,4.180806350899183599e+02,6.198663710349355824e+02,4.590076408702698245e+02,9.446745872497558594e+00,1.147378161549568176e-01,-1.912296712398529053e-01,3.200000000000000000e+02
5.341578102504645358e+02,4.877916394105704967e+02,5.807205858427587373e+02,4.934740280177029490e+02,4.677026188195304712e+02,4.707697453882065020e+02,4.841704776088372455e+02,5.365185507628193591e+02,9.446745872497558594e+00,1.147378161549568176e-01,-1.912296712398529053e-01,3.210000000000000000e+02
5.417174915670984774e+02,4.987925041731723468e+02,5.945504331880838436e+02,4.936300532364657556e+02,4.780432026339840377e+02,4.838677029938153282e+02,4.445059492068103282e+02,5.358035500010082615e+02,9.446745872497558594e+00,1.147378161549568176e-01,-1.912296712398529053e-01,3.220000000000000000e+02
4.922979949897598999e+02,4.436688573326318874e+02,5.424730738916732662e+02,5.509017429585073842e+02,4.378241257698100526e+02,4.322524831743903633e+02,5.448223169450720889e+02,4.486765825952388695e+02,9.446745872497558594e+00,1.147378161549568176e-01,-1.912296712398529053e-01,3.230000000000000000e+02
4.479059752100365586e+02,3.916313015037812875e+02,4.887934862352267373e+02,5.797043823438798427e+02,3.929681320393938222e+02,3.791351758200871700e+02,6.356327401076559909e+02,3.863944134029443376e+02,9.446745872497558594e+00,1.147378161549568176e-01,-1.912296712398529053e-01,3.240000000000000000e+02
4.638209545063400583e+02,4.070524645714540384e+02,5.001029271233455802e+02,5.342038682954334945e+02,3.963355780606034386e+02,3.900613440397537488e+02,5.810025268695608247e+02,4.264351557678819518e+02,9.446745872497558594e+00,1.147378161549568176e-01,-1.912296712398529053e-01,3.250000000000000000e+02
5.118559533674269915e+02,4.605296090486517642e+02,5.537190222543067648e+02,4.714769239412053139e+02,4.348722896825202042e+02,4.426778437228713301e+02,4.463555404056096449e+02,5.053077073162639863e+02,9.446745872497558594e+00,1.147378161549568176e-01,-1.912296712398529053e-01,3.260000000000000000e+02
5.192927197152093868e+02,4.704336979294821504e+02,5.684653634657188377e+02,4.721694067511998583e+02,4.477480789319924952e+02,4.570169908651623700e+02,4.080937554624324548e+02,5.059600108689264744e+02,9.446745872497558594e+00,1.147378161549568176e-01,-1.912296712398529053e-01,3.270000000000000000e+02
4.687955312472768128e+02,4.159893800396821462e+02,5.159048882639217481e+02,5.289412062218762003e+02,4.103344534474890679e+02,4.057021510802296689e+02,5.102015122035445529e+02,4.194196200792575837e+02,9.446745872497558594e+00,1.147378161549568176e-01,-1.912296712398529053e-01,3.280000000000000000e+02
4.219046538922048057e+02,3.654604241868655663e+02,4.600033225010120077e+02,5.566539992751713726e+02,3.675241477681483957e+02,3.516545164858434873e+02,6.036756505334415124e+02,3.570370451579328801e+02,9.446745872497558594e+00,1.147378161549568176e-01,-1.912296712398529053e-01,3.290000000000000000e+02
4.349689092051630723e+02,3.815415651498115039e+02,4.698969367252320808e+02,5.099672258141436032e+02,3.710365659398303251e+02,3.608297097504728299e+02,5.521007706290256465e+02,3.966010217229522823e+02,9.446745872497558594e+00,1.147378161549568176e-01,-1.912296712398529053e-01,3.300000000000000000e+02
4.829302827071951469e+02,4.348040948060843220e+02,5.245563483215155429e+02,4.460443373007365153e+02,4.082749582262404147e+02,4.113031873706204351e+02,4.189319009694736451e+02,4.753143270815453434e+02,9.446745872497558594e+00,1.147378161549568176e-01,-1.912296712398529053e-01,3.310000000000000000e+02
4.940488625705474988e+02,4.441285840480231855e+02,5.410082368773873895e+02,4.457942860815091990e+02,4.203692068378622935e+02,4.247188832320971414e+02,3.807363209007744445e+02,4.771888543715285778e+02,9.446745872497558594e+00,1.147378161549568176e-01,-1.912296712398529053e-01,3.320000000000000000e+02
4.475858613841119222e+02,3.882962005725312338e+02,4.885609959173743846e+02,5.023224267894547665e+02,3.836714749584971287e+02,3.757358064234686026e+02,4.815116766674327664e+02,3.935773080096587364e+02,9.446745872497558594e+00,1.147378161549568176e-01,-1.912296712398529053e-01,3.330000000000000000e+02
4.014911945393905626e+02,3.350111166670976672e+02,4.314880791749492346e+02,5.308238342521508457e+02,3.426308026996994158e+02,3.272135497324052267e+02,5.724416956939530792e+02,3.347683841130819928e+02,9.446745872497558594e+00,1.147378161549568176e-01,-1.912296712398529053e-01,3.340000000000000000e+02
4.126243115102552110e+02,3.476355207301457995e+02,4.405741698513775191e+02,4.858067846297781216e+02,3.489815262861084193e+02,3.426442944842710858e+02,5.186265162766940193e+02,3.770696925492629816e+02,9.446745872497558594e+00,1.147378161549568176e-01,-1.912296712398529053e-01,3.350000000000000000e+02
4.586038124995466205e+02,3.985714308142160007e+02,4.957250459806673462e+02,4.232792560438538203e+02,3.903081697802408598e+02,3.971967512168994290e+02,3.864491190479893703e+02,4.570701595892605837e+02,9.446745872497558594e+00,1.147378161549568176e-01,-1.912296712398529053e-01,3.360000000000000000e+02
4.689047957142538507e+02,4.086153691151994281e+02,5.143923149482725421e+02,4.227482080765039427e+02,4.064298303476098226e+02,4.106153824425709900e+02,3.517637532484659459e+02,4.590692834759938705e+02,9.408499717712402344e+00,1.912296712398529053e-01,-2.677215635776519775e-01,3.370000000000000000e+02
4.231976676933918498e+02,3.572754713606918813e+02,4.661115166061572381e+02,4.774952446923052776e+02,3.720219504242049879e+02,3.573953500405623345e+02,4.560106261680557509e+02,3.745419990132977546e+02,9.408499717712402344e+00,1.912296712398529053e-01,-2.677215635776519775e-01,3.380000000000000000e+02
3.804398253546023625e+02,3.108705662457941798e+02,4.140477192209218629e+02,5.042441640917459154e+02,3.313114122752158437e+02,3.025832876296117320e+02,5.489694475434880587e+02,3.133349915612016048e+02,9.408499717712402344e+00,1.912296712398529053e-01,-2.677215635776519775e-01,3.390000000000000000e+02
3.969423634207923897e+02,3.297015402717879624e+02,4.263428459038987057e+02,4.583752208688747487e+02,3.361452082321920898e+02,3.131002642215971719e+02,4.967642220633351826e+02,3.520243247061189322e+02,9.408499717712402344e+00,1.912296712398529053e-01,-2.677215635776519775e-01,3.400000000000000000e+02
4.470843919933031430e+02,3.837159322749648709e+02,4.810566704308948829e+02,3.961608872239376069e+02,3.736517622911851504e+02,3.661030314211384393e+02,3.665307704649749212e+02,4.291275709253313835e+02,9.408499717712402344e+00,1.912296712398529053e-01,-2.677215635776519775e-01,3.410000000000000000e+02
4.579300019478978356e+02,3.939833608672051923e+02,4.966649683784562512e+02,3.979799013361189282e+02,3.845281216136645526e+02,3.810177748774585780e+02,3.333053118312818697e+02,4.308901191362238023e+02,9.408499717712402344e+00,1.912296712398529053e-01,-2.677215635776519775e-01,3.420000000000000000e+02
4.100236134470687830e+02,3.421473878333272296e+02,4.454040085260276101e+02,4.571985390168629237e+02,3.460699217508808943e+02,3.315124154922814341e+02,4.383131101491380832e+02,3.486963461205123167e+02,9.408499717712402344e+00,1.912296712398529053e-01,-2.677215635776519775e-01,3.430000000000000000e+02
3.638839821998262778e+02,2.957548196523275692e+02,3.918521331898227800e+02,4.884270682686619693e+02,3.038352312469796743e+02,2.820437180239532609e+02,5.321818051094232942e+02,2.910101854634667689e+02,9.408499717712402344e+00,1.912296712398529053e-01,-2.677215635776519775e-01,3.440000000000000000e+02
3.759925797008691006e+02,3.147349797988717910e+02,4.035218870199823868e+02,4.453608538845655858e+02,3.084950177595455898e+02,2.978494871001093998e+02,4.813095544918178348e+02,3.335004258705084794e+02,9.408499717712402344e+00,1.912296712398529053e-01,-2.677215635776519775e-01,3.450000000000000000e+02
4.214530913970302208e+02,3.685087932678652578e+02,4.576625248477357673e+02,3.852496247581730131e+02,3.461441527339557069e+02,3.538013317784643732e+02,3.523068515103805112e+02,4.140243270801001927e+02,9.408499717712402344e+00,1.912296712398529053e-01,-2.677215635776519775e-01,3.460000000000000000e+02
4.294613147041745833e+02,3.777149781911211903e+02,4.729824439476651605e+02,3.893637956716775079e+02,3.581510249125276459e+02,3.692296622945432318e+02,3.200385230207539280e+02,4.178865567798129632e+02,9.408499717712402344e+00,1.912296712398529053e-01,-2.677215635776519775e-01,3.470000000000000000e+02
3.813370545930738444e+02,3.234311979322810657e+02,4.220551938717544544e+02,4.496991920491491328e+02,3.223778441292306525e+02,3.197501198135214509e+02,4.259206080260846647e+02,3.363047900690435199e+02,9.408499717712402344e+00,1.912296712398529053e-01,-2.677215635776519775e-01,3.480000000000000000e+02
3.358703948797774501e+02,2.740799563606924494e+02,3.691060689150835969e+02,4.801478989820825518e+02,2.835174816445942270e+02,2.702070243962225504e+02,5.205580408260211698e+02,2.786685582909994991e+02,9.408499717712402344e+00,1.912296712398529053e-01,-2.677215635776519775e-01,3.490000000000000000e+02
3.479791115669286228e+02,2.921096933507360518e+02,3.814397020510150469e+02,4.359668975936729112e+02,2.912030681871983688e+02,2.843812613902482553e+02,4.703747887599383830e+02,3.213007422964947182e+02,9.408499717712402344e+00,1.912296712398529053e-01,-2.677215635776519775e-01,3.500000000000000000e+02
3.931384772444143891e+02,3.477141230715060374e+02,4.367901212040087557e+02,3.748197667477143114e+02,3.314314517395469011e+02,3.376946805341140134e+02,3.421266395404745708e+02,4.021197750743303914e+02,9.408499717712402344e+00,1.912296712398529053e-01,-2.677215635776519775e-01,3.510000000000000000e+02
4.014073580734402640e+02,3.595061178132236819e+02,4.540022840390374768e+02,3.760287823633116204e+02,3.455323264089674922e+02,3.521556527348366217e+02,3.104307716793191503e+02,4.067235962853519595e+02,9.408499717712402344e+00,1.912296712398529053e-01,-2.677215635776519775e-01,3.520000000000000000e+02
3.541386524465051480e+02,3.074928831954530324e+02,4.048611735058948398e+02,4.313028597818847629e+02,3.105804409403936006e+02,3.036820191935839830e+02,4.164595496782567352e+02,3.263551029779700912e+02,9.408499717712402344e+00,1.912296712398529053e-01,-2.677215635776519775e-01,3.530000000000000000e+02
3.098999037097746623e+02,2.607261763369315304e+02,3.530754508019817877e+02,4.571391301509356708e+02,2.709233843723850441e+02,2.547203610588694573e+02,5.113902482160774525e+02,2.695161761702038348e+02,9.408499717712402344e+00,1.912296712398529053e-01,-2.677215635776519775e-01,3.540000000000000000e+02
3.235771244794450467e+02,2.800991721349200816e+02,3.664045681925344979e+02,4.101604706275102217e+02,2.774681078141002217e+02,2.685333556777477497e+02,4.622376465371344239e+02,3.120021892326258239e+02,9.408499717712402344e+00,1.912296712398529053e-01,-2.677215635776519775e-01,3.550000000000000000e+02
3.702859668944001896e+02,3.331974387199152261e+02,4.229181115567116649e+02,3.467504744165707962e+02,3.177510736916738097e+02,3.222241481640812708e+02,3.350821534637070727e+02,3.923857979022650397e+02,9.408499717712402344e+00,1.912296712398529053e-01,-2.677215635776519775e-01,3.560000000000000000e+02
3.795211748683432234e+02,3.407694439838596736e+02,4.411161233589882613e+02,3.457359599885021453e+02,3.329458261218023836e+02,3.375614218433183851e+02,3.035006339510437101e+02,3.967376402845402481e+02,9.408499717712402344e+00,1.912296712398529053e-01,-2.677215635776519775e-01,3.570000000000000000e+02
3.328180131227854872e+02,2.879293028854590375e+02,3.928225052722118562e+02,4.000246848852839321e+02,2.989071377765212674e+02,2.886382282637423486e+02,4.090111482615757268e+02,3.159369349168991903e+02,9.408499717712402344e+00,1.912296712398529053e-01,-2.677215635776519775e-01,3.580000000000000000e+02
2.896179181208426598e+02,2.441834087025345070e+02,3.421616191472712671e+02,4.262120040493027773e+02,2.593381059525199817e+02,2.382460905653788359e+02,5.038727787150855875e+02,2.584155170659432770e+02,9.408499717712402344e+00,1.912296712398529053e-01,-2.677215635776519775e-01,3.590000000000000000e+02
3.049353638084794511e+02,2.668504055610974319e+02,3.562607757221994689e+02,3.798983468397273100e+02,2.649236724943475565e+02,2.510681203766143881e+02,4.550907323236606317e+02,3.003039783329149941e+02,9.408499717712402344e+00,1.912296712398529053e-01,-2.677215635776519775e-01,3.600000000000000000e+02
3.528460507733834675e+02,3.226755211204945226e+02,4.121425251404070877e+02,3.179504086484885192e+02,3.032725168564065825e+02,3.035277075804260676e+02,3.281734174907323904e+02,3.800678852959608776e+02,9.408499717712402344e+00,1.912296712398529053e-01,-2.677215635776519775e-01,3.610000000000000000e+02
3.623193450473627308e+02,3.335097234474378638e+02,4.292226403818422114e+02,3.204225520233449060e+02,3.172232765166481840e+02,3.168364398127450841e+02,2.963502159147610655e+02,3.838705376411962789e+02,9.408499717712402344e+00,1.912296712398529053e-01,-2.677215635776519775e-01,3.620000000000000000e+02
3.158783872084895847e+02,2.825580388530797791e+02,3.813467756907120929e+02,3.792515280188381439e+02,2.849161114367234404e+02,2.674913467755541205e+02,4.029331474534410518e+02,3.035287997570776497e+02,9.408499717712402344e+00,1.912296712398529053e-01,-2.677215635776519775e-01,3.630000000000000000e+02
2.737428397935873363e+02,2.373587204693540116e+02,3.322130970427679131e+02,4.087908413917830330e+02,2.493000104730599560e+02,2.201555370769056026e+02,4.994625153518281877e+02,2.477457104752465966e+02,9.484992027282714844e+00,2.294756323099136353e-01,-2.677215635776519775e-01,3.640000000000000000e+02
2.901013996289184433e+02,2.581272797201745561e+02,3.462086658790576621e+02,3.644591446422273293e+02,2.573199402765458217e+02,2.374821006260171998e+02,4.515238707240787335e+02,2.913265021746046841e+02,9.484992027282714844e+00,2.294756323099136353e-01,-2.677215635776519775e-01,3.650000000000000000e+02
3.382235087810768164e+02,3.151435061088050134e+02,3.992745188928893185e+02,3.046935675233253278e+02,2.945423270089740981e+02,2.934360398098506266e+02,3.245387778141302988e+02,3.715589328796777409e+02,9.484992027282714844e+00,2.294756323099136353e-01,-2.677215635776519775e-01,3.660000000000000000e+02
3.477441864446882391e+02,3.287805778838664992e+02,4.123946362482456607e+02,3.099891426352769486e+02,3.049893507710730773e+02,3.096995915996812982e+02,2.930322912244737381e+02,3.748727537841114099e+02,9.484992027282714844e+00,2.294756323099136353e-01,-2.677215635776519775e-01,3.670000000000000000e+02
3.018138715561217396e+02,2.791602690777508542e+02,3.608694641587571823e+02,3.715332935698752408e+02,2.680591825288429391e+02,2.634234039178263629e+02,3.986949845893686870e+02,2.937191409988154192e+02,9.484992027282714844e+00,2.294756323099136353e-01,-2.677215635776519775e-01,3.680000000000000000e+02
2.601039010594249703e+02,2.338584318487046403e+02,3.090604773838422261e+02,4.036524882494850317e+02,2.273158933476515813e+02,2.178185899144300492e+02,4.928808787578891497e+02,2.369475650395179400e+02,9.484992027282714844e+00,2.294756323099136353e-01,-2.677215635776519775e-01,3.690000000000000000e+02
2.766808532619543257e+02,2.538903346142687951e+02,3.228031523323879810e+02,3.619543394454231020e+02,2.318583951836408232e+02,2.346875303442575387e+02,4.431867245807952713e+02,2.794893193564348621e+02,9.484992027282714844e+00,2.294756323099136353e-01,-2.677215635776519775e-01,3.700000000000000000e+02
3.255470998534656246e+02,3.087892986952501815e+02,3.790545949369479786e+02,3.035757052105473122e+02,2.694496071704488713e+02,2.893545579357814859e+02,3.166945703308156226e+02,3.587945611588511383e+02,9.484992027282714844e+00,2.294756323099136353e-01,-2.677215635776519775e-01,3.710000000000000000e+02
3.358506625344452914e+02,3.196216240002322593e+02,3.967275400162907317e+02,3.075577873467555037e+02,2.828582292311766651e+02,3.046675104202149669e+02,2.866261607776978053e+02,3.613011992885367363e+02,9.484992027282714844e+00,2.294756323099136353e-01,-2.677215635776519775e-01,3.720000000000000000e+02
2.892766116472193971e+02,2.692820323030318832e+02,3.475807342300395248e+02,3.661460043450570083e+02,2.484363681466056732e+02,2.575612938722915715e+02,3.928013917052448960e+02,2.797866178145777667e+02,9.484992027282714844e+00,2.294756323099136353e-01,-2.677215635776519775e-01,3.730000000000000000e+02
2.460630175599362701e+02,2.258685942583397264e+02,2.952174495472499984e+02,3.963256516724068206e+02,2.090884173135200399e+02,2.110356474266300211e+02,4.873504196401045192e+02,2.233938975473283790e+02,9.484992027282714844e+00,2.294756323099136353e-01,-2.677215635776519775e-01,3.740000000000000000e+02
2.625559312920304365e+02,2.478288723661316908e+02,3.076093186657672049e+02,3.544478739410988055e+02,2.148193365546976565e+02,2.267197550116979983e+02,4.396666300203942228e+02,2.661861747234506765e+02,9.484992027282714844e+00,2.294756323099136353e-01,-2.677215635776519775e-01,3.750000000000000000e+02
3.131307701293771970e+02,3.032802890710445354e+02,3.631099224162462633e+02,2.958844012779954937e+02,2.528301795623920043e+02,2.792068755053333007e+02,3.165800387176277582e+02,3.445506320314525510e+02,9.484992027282714844e+00,2.294756323099136353e-01,-2.677215635776519775e-01,3.760000000000000000e+02
3.252673277473440976e+02,3.140451786114863353e+02,3.803455609040684067e+02,2.983206428179400973e+02,2.652256846931122709e+02,2.916019809064018773e+02,2.896992484833608614e+02,3.458080152296170127e+02,9.484992027282714844e+00,2.294756323099136353e-01,-2.677215635776519775e-01,3.770000000000000000e+02
2.800587585558678256e+02,2.628166920036019292e+02,3.314991102933636284e+02,3.546303020428313175e+02,2.300332211597269634e+02,2.426325240135702188e+02,3.978083346075727604e+02,2.645515495083309361e+02,9.484992027282714844e+00,2.294756323099136353e-01,-2.677215635776519775e-01,3.780000000000000000e+02
2.380755888840794796e+02,2.166444137476137257e+02,2.814302993284800323e+02,3.828169670327406493e+02,1.919696638449531747e+02,1.958311467980020097e+02,4.929169880155968713e+02,2.097928309350390919e+02,9.484992027282714844e+00,2.294756323099136353e-01,-2.677215635776519775e-01,3.790000000000000000e+02
2.546314782883928274e+02,2.352166676048873342e+02,2.973739298996151774e+02,3.392475147764780559e+02,2.001543445790521218e+02,2.110864610829157755e+02,4.444913249522360275e+02,2.540349464798418921e+02,9.484992027282714844e+00,2.294756323099136353e-01,-2.677215635776519775e-01,3.800000000000000000e+02
3.033334280937851872e+02,2.892212648507484118e+02,3.549729478419030784e+02,2.790784551351098344e+02,2.401010612134050461e+02,2.623052843267869321e+02,3.200285130326083163e+02,3.334294334539517877e+02,9.484992027282714844e+00,2.294756323099136353e-01,-2.677215635776519775e-01,3.810000000000000000e+02
3.138309760352931335e+02,3.005118535705114482e+02,3.720183063228832907e+02,2.802111123068534653e+02,2.540167477655922994e+02,2.742116950787385576e+02,2.916968773713451810e+02,3.359269498054782161e+02,9.484992027282714844e+00,2.294756323099136353e-01,-2.677215635776519775e-01,3.820000000000000000e+02
2.695219952200786793e+02,2.499886137310750200e+02,3.226895845010294579e+02,3.354435811768926214e+02,2.204013416519737802e+02,2.260446396674669813e+02,3.979580219033232424e+02,2.553517659398785327e+02,9.484992027282714844e+00,2.294756323099136353e-01,-2.677215635776519775e-01,3.830000000000000000e+02
2.294001220407080837e+02,2.047982247981635737e+02,2.728096053841509274e+02,3.623296961465312052e+02,1.832607029824648635e+02,1.797319299621158279e+02,4.907174699895549566e+02,1.997429138827938004e+02,9.484992027282714844e+00,2.294756323099136353e-01,-2.677215635776519775e-01,3.840000000000000000e+02
2.457945730020146584e+02,2.255059460818010848e+02,2.880651605353923514e+02,3.176633087447698927e+02,1.916382942162454128e+02,1.951120010863814969e+02,4.404797643376805354e+02,2.430063148090339382e+02,9.484992027282714844e+00,2.294756323099136353e-01,-2.677215635776519775e-01,3.850000000000000000e+02
2.926564710632665083e+02,2.809614814703090815e+02,3.435797106291865930e+02,2.579487679161102278e+02,2.324313175891365972e+02,2.481484107291689725e+02,3.153427250953682233e+02,3.234050331279358943e+02,9.484992027282714844e+00,2.294756323099136353e-01,-2.677215635776519775e-01,3.860000000000000000e+02
3.018603683532564901e+02,2.909616496306844056e+02,3.589114781816460891e+02,2.616244339646364097e+02,2.480560973215469858e+02,2.636287341360439314e+02,2.865499832632194739e+02,3.283566444405805669e+02,9.484992027282714844e+00,2.294756323099136353e-01,-2.677215635776519775e-01,3.870000000000000000e+02
2.567712055727606639e+02,2.387173865525255678e+02,3.087839816021150909e+02,3.206786858855193714e+02,2.151972491624183021e+02,2.185390510894794716e+02,3.919715675142942928e+02,2.495144707044382812e+02,9.484992027282714844e+00,2.294756323099136353e-01,-2.677215635776519775e-01,3.880000000000000000e+02
2.155450363695999840e+02,1.950261224316636799e+02,2.577094779918552376e+02,3.513991149893699912e+02,1.772212305097200442e+02,1.746197264788279426e+02,4.828670667860278627e+02,1.943347996656812029e+02,9.484992027282714844e+00,2.294756323099136353e-01,-2.677215635776519775e-01,3.890000000000000000e+02
2.315806199365761131e+02,2.186772693992243148e+02,2.715497954425518401e+02,3.104854063213133486e+02,1.841829996699161711e+02,1.927190415527074947e+02,4.316244825102330651e+02,2.367339887723937863e+02,9.484992027282714844e+00,2.294756323099136353e-01,-2.677215635776519775e-01,3.900000000000000000e+02
2.807320342406164855e+02,2.749673484983795788e+02,3.280016688896212145e+02,2.535594859348202590e+02,2.238026180895903963e+02,2.476892595008685021e+02,3.050661555597762344e+02,3.144101713548516273e+02,9.484992027282714844e+00,2.294756323099136353e-01,-2.677215635776519775e-01,3.910000000000000000e+02
2.935912846069622901e+02,2.844921073897348833e+02,3.472925790312947356e+02,2.585731426724087214e+02,2.383655775933802943e+02,2.623301852713484550e+02,2.740951511919556651e+02,3.153448249962384580e+02,9.484992027282714844e+00,2.294756323099136353e-01,-2.677215635776519775e-01,3.920000000000000000e+02
2.508221875705348793e+02,2.330397101089984062e+02,3.020049749215395423e+02,3.183486822706036037e+02,2.054719099511858076e+02,2.151493012177234050e+02,3.786327099481277401e+02,2.341540776868278044e+02,9.484992027282714844e+00,2.294756323099136353e-01,-2.677215635776519775e-01,3.930000000000000000e+02
2.104023419245495461e+02,1.899743313834624132e+02,2.547324174909881549e+02,3.502404578788409708e+02,1.693571537262760103e+02,1.704414318433555309e+02,4.728468309695017524e+02,1.797670328343447181e+02,9.484992027282714844e+00,2.294756323099136353e-01,-2.677215635776519775e-01,3.940000000000000000e+02
2.276896442480647238e+02,2.125071311597494059e+02,2.707295798861960066e+02,3.097323888415994588e+02,1.788498899611440720e+02,1.886249608593789162e+02,4.260604222420661245e+02,2.238782492556856596e+02,9.523238182067871094e+00,2.294756323099136353e-01,-1.912296712398529053e-01,3.950000000000000000e+02
2.779659755997417960e+02,2.679573912152627599e+02,3.263980380575158051e+02,2.519190085517402622e+02,2.191869352332287235e+02,2.429845190854539396e+02,3.028483109993976541e+02,3.017762038950750139e+02,9.523238182067871094e+00,2.294756323099136353e-01,-1.912296712398529053e-01,3.960000000000000000e+02
