F3,F4,C3,C4,P3,P4,Cz,Pz,Accel_x,Accel_y,Accel_z,Sample
2.137312549166381359e-11,9.094947017729282379e-12,-2.273736754432320595e-12,-4.092726157978177071e-12,9.094947017729282379e-13,-1.909938873723149300e-11,9.094947017729282379e-12,-8.185452315956354141e-12,9.523238182067871094e+00,3.059675097465515137e-01,-4.207052886486053467e-01,0.000000000000000000e+00
-2.277738086801268764e+02,-3.185105747181141851e+02,-7.507459274654283945e+02,-5.419034190949528238e+02,-6.107906098051216759e+02,-5.405012421032879502e+02,-4.920005156712973076e+02,-3.909361270928975500e+02,9.523238182067871094e+00,3.059675097465515137e-01,-4.207052886486053467e-01,1.000000000000000000e+00
-3.085267660404588241e+02,-4.607445981329196911e+02,-8.486277909943985378e+02,-1.136485878015898379e+03,-8.003156382333079364e+02,-7.280539734665305787e+02,-5.435497156622691364e+02,-5.289523099009963971e+02,9.523238182067871094e+00,3.059675097465515137e-01,-4.207052886486053467e-01,2.000000000000000000e+00
-2.005798158272095861e+02,-3.826402142631643528e+02,-5.923093725628700668e+02,-1.842618460502409562e+03,-6.305865850060008597e+02,-5.898713512546405582e+02,-5.216372343495604582e+02,-3.916540057596378119e+02,9.523238182067871094e+00,3.059675097465515137e-01,-4.207052886486053467e-01,3.000000000000000000e+00
2.338142066889486159e+01,-1.700279107135779668e+02,-6.700091875555451679e+02,-2.601970847137300552e+03,-4.170408334036840188e+02,-3.706374340796101023e+02,-9.085097067877968584e+02,-1.229071878000149809e+02,9.523238182067871094e+00,3.059675097465515137e-01,-4.207052886486053467e-01,4.000000000000000000e+00
2.613016628519476399e+02,6.214215359869831445e+01,-1.073076701275637333e+03,-3.332334726627661894e+03,-2.667724801802014554e+02,-1.838380163008464478e+02,-1.496721436674032702e+03,1.483968087500979891e+02,9.523238182067871094e+00,3.059675097465515137e-01,-4.207052886486053467e-01,5.000000000000000000e+00
4.798381052871864085e+02,2.625325693928398323e+02,-1.207898387955546923e+03,-4.149708185217183200e+03,-8.816550066172067091e+01,4.676357114963138883e+00,-1.989846662543730417e+03,3.631639269494723976e+02,9.523238182067871094e+00,3.059675097465515137e-01,-4.207052886486053467e-01,6.000000000000000000e+00
6.839237700348376165e+02,4.272639774844851672e+02,-8.783284245564711910e+02,-5.034212265792093604e+03,1.165996643138792024e+02,1.835690290704997096e+02,-2.494209337118160875e+03,5.055392459177401179e+02,9.523238182067871094e+00,3.059675097465515137e-01,-4.207052886486053467e-01,7.000000000000000000e+00
8.632504562980479932e+02,5.692069823067747620e+02,-5.684871472887334676e+02,-5.526798065728087749e+03,2.615078568680278295e+02,3.121251941422806340e+02,-3.061187909071075865e+03,6.292515403331321977e+02,9.523238182067871094e+00,3.059675097465515137e-01,-4.207052886486053467e-01,8.000000000000000000e+00
1.044202402648512361e+03,7.415944030821460728e+02,-7.132242033469344733e+02,-5.393025067617145396e+03,3.863389757658960662e+02,4.557840480504423795e+02,-3.599712421415668359e+03,8.395349293078911614e+02,9.523238182067871094e+00,3.059675097465515137e-01,-4.207052886486053467e-01,9.000000000000000000e+00
1.306686080783571470e+03,1.007346819514027175e+03,-1.095876428004413583e+03,-5.295344051352798488e+03,6.117976155416242818e+02,7.112747621202420305e+02,-4.353426247095337203e+03,1.156094891854052776e+03,9.523238182067871094e+00,3.059675097465515137e-01,-4.207052886486053467e-01,1.000000000000000000e+01
1.609218434154096940e+03,1.291676814446176195e+03,-1.176457609503427420e+03,-5.939946090203879976e+03,8.881446688545245252e+02,9.949701005770407392e+02,-5.372044243892849408e+03,1.430705865236857562e+03,9.523238182067871094e+00,3.059675097465515137e-01,-4.207052886486053467e-01,1.100000000000000000e+01
1.775286547230481801e+03,1.428024756025231454e+03,-8.498393919693871794e+02,-6.946746195002524473e+03,1.037018144897864431e+03,1.126084241130768078e+03,-6.012355988818484548e+03,1.530445482371587786e+03,9.523238182067871094e+00,3.059675097465515137e-01,-4.207052886486053467e-01,1.200000000000000000e+01
1.838414784512586948e+03,1.480241710807666777e+03,-5.872394964770769548e+02,-7.480358177907724894e+03,1.094752696438183648e+03,1.168844711923378554e+03,-6.247976027532610715e+03,1.586614832364975882e+03,9.523238182067871094e+00,3.059675097465515137e-01,-4.207052886486053467e-01,1.300000000000000000e+01
2.068148701722276201e+03,1.712778599210880429e+03,-7.561653286625057717e+02,-7.445967583116099377e+03,1.292548857201447618e+03,1.377776486265354379e+03,-7.127244555275139646e+03,1.836481558527266998e+03,9.523238182067871094e+00,3.059675097465515137e-01,-4.207052886486053467e-01,1.400000000000000000e+01
2.438587883660799889e+03,2.080719864868345667e+03,-1.102787092881316084e+03,-7.245389297095413895e+03,1.602448723280182548e+03,1.713587861241430801e+03,-8.578315817963222798e+03,2.201049016653711078e+03,9.523238182067871094e+00,3.059675097465515137e-01,-4.207052886486053467e-01,1.500000000000000000e+01
2.606670583114822421e+03,2.243421921148693400e+03,-1.168499779891620847e+03,-7.180126119443663811e+03,1.748949418359412903e+03,1.868522613623214511e+03,-9.157765728198926809e+03,2.373669192920219757e+03,9.523238182067871094e+00,3.059675097465515137e-01,-4.207052886486053467e-01,1.600000000000000000e+01
2.622394372979052605e+03,2.246137086315237866e+03,-9.522885338029125251e+02,-7.631367043636916605e+03,1.776503683900813940e+03,1.878440426636556140e+03,-9.186249600218798150e+03,2.376954766981392822e+03,9.523238182067871094e+00,3.059675097465515137e-01,-4.207052886486053467e-01,1.700000000000000000e+01
2.879089359350042287e+03,2.472441606207137738e+03,-7.569875579399242724e+02,-8.587403756297026121e+03,1.992343492752999282e+03,2.078207483719863376e+03,-1.046436812661202930e+04,2.535722441889197398e+03,9.523238182067871094e+00,3.059675097465515137e-01,-4.207052886486053467e-01,1.800000000000000000e+01
3.229551697470412364e+03,2.811437526273615731e+03,-6.171815180986911855e+02,-8.946866201575594459e+03,2.281015982715229256e+03,2.376298252474495712e+03,-1.212508223384021039e+04,2.841291819037661298e+03,9.523238182067871094e+00,3.059675097465515137e-01,-4.207052886486053467e-01,1.900000000000000000e+01
3.231784029890445254e+03,2.850784702512397416e+03,-3.679515437509398907e+02,-8.138081034611834184e+03,2.305936708296473626e+03,2.422753822552574093e+03,-1.198778823141298199e+04,2.992636567115699108e+03,9.523238182067871094e+00,3.059675097465515137e-01,-4.207052886486053467e-01,2.000000000000000000e+01
3.255488379990472822e+03,2.887412435852001636e+03,-9.629889333475853164e+01,-7.844790855580609787e+03,2.356492471480754375e+03,2.476820023350515839e+03,-1.200249521292522513e+04,3.086278833723356001e+03,9.523238182067871094e+00,3.059675097465515137e-01,-4.207052886486053467e-01,2.100000000000000000e+01
3.857200214666856027e+03,3.413581808611076212e+03,-4.436806042752095891e+00,-9.298340934681407816e+03,2.853841267593400516e+03,2.955159837321970372e+03,-1.504602320903339205e+04,3.416775519087439989e+03,9.523238182067871094e+00,3.059675097465515137e-01,-4.207052886486053467e-01,2.200000000000000000e+01
4.160530500660851430e+03,3.678998093784164212e+03,5.740002874090214391e+01,-9.847098949568797252e+03,3.108437591214690656e+03,3.195423626056423018e+03,-1.676291368285559656e+04,3.597641344575851235e+03,9.523238182067871094e+00,3.059675097465515137e-01,-4.207052886486053467e-01,2.300000000000000000e+01
2.778605476091698620e+03,2.472137760883219016e+03,4.066319456567116504e+02,-6.163034715467041678e+03,2.048230322245076422e+03,2.148474256225700628e+03,-1.010426433542295854e+04,2.934470519520406924e+03,9.523238182067871094e+00,3.059675097465515137e-01,-4.207052886486053467e-01,2.400000000000000000e+01
3.363309088018154398e+02,3.344916692715771660e+02,9.616674329341301473e+02,-3.716215501058172777e+01,1.685731606502963587e+02,2.973455067906588738e+02,1.945763256239479233e+03,1.719477689739316020e+03,9.484992027282714844e+00,4.207052886486053467e-01,-3.059675097465515137e-01,2.500000000000000000e+01
-1.030577404187278034e+03,-8.655841082745180302e+02,1.330837970416012467e+03,3.508754967768176812e+03,-8.691257848902632759e+02,-7.296027810123039217e+02,8.593635889966766626e+03,1.030504417557450779e+03,9.484992027282714844e+00,4.207052886486053467e-01,-3.059675097465515137e-01,2.600000000000000000e+01
-7.286206679620258910e+02,-6.065002898082245792e+02,1.402456823771846302e+03,3.272812841293185102e+03,-6.096890873119602929e+02,-4.871478554678469663e+02,6.749028752070818882e+03,1.187162930367236868e+03,9.484992027282714844e+00,4.207052886486053467e-01,-3.059675097465515137e-01,2.700000000000000000e+01
-1.626830577356545291e+02,-1.109488617701904332e+02,1.440932152687932785e+03,2.484330432329599262e+03,-1.504049806672419436e+02,-4.456100822633197822e+01,3.815570966770414998e+03,1.510617901361522627e+03,9.484992027282714844e+00,4.207052886486053467e-01,-3.059675097465515137e-01,2.800000000000000000e+01
-1.888947565562277759e+02,-1.167728619453882857e+02,1.629675964540675977e+03,3.011386561664135115e+03,-1.546359181758218710e+02,-3.737515538623824796e+01,4.633179857635879671e+03,1.596399119142982272e+03,9.484992027282714844e+00,4.207052886486053467e-01,-3.059675097465515137e-01,2.900000000000000000e+01
-2.224364444957018350e+02,-1.150569013856043057e+02,1.869142454321992091e+03,3.564147646281561720e+03,-1.600449968196994632e+02,-1.564293644962367580e+01,6.019600460231512443e+03,1.712555697907741205e+03,9.484992027282714844e+00,4.207052886486053467e-01,-3.059675097465515137e-01,3.000000000000000000e+01
1.028265620442830368e+02,1.896114927282599183e+02,2.023044685923493034e+03,3.345518266159374434e+03,1.197438101255042966e+02,2.712800152829622675e+02,5.110889917037107807e+03,1.956885530108119383e+03,9.484992027282714844e+00,4.207052886486053467e-01,-3.059675097465515137e-01,3.100000000000000000e+01
3.171322155038437813e+02,3.723238399185602248e+02,2.102813710782961607e+03,3.315594745007088022e+03,3.106673355336804434e+02,4.411303459508671949e+02,3.819578406681320303e+03,2.058496405730218157e+03,9.484992027282714844e+00,4.207052886486053467e-01,-3.059675097465515137e-01,3.200000000000000000e+01
2.595703699186528866e+02,3.170306628015887327e+02,2.190702148639570169e+03,3.796475727204587201e+03,2.815880247217312444e+02,3.935836921810775948e+02,3.763097147081095500e+03,2.026663401151922699e+03,9.484992027282714844e+00,4.207052886486053467e-01,-3.059675097465515137e-01,3.300000000000000000e+01
3.381298543865125339e+02,4.108798854561988492e+02,2.333703182129737797e+03,3.993963891764904020e+03,3.562439541401209908e+02,4.792502407761562608e+02,3.857808176948610708e+03,2.159707189608390308e+03,9.484992027282714844e+00,4.207052886486053467e-01,-3.059675097465515137e-01,3.400000000000000000e+01
6.274210994059101267e+02,7.064464095089663260e+02,2.519094246263502555e+03,3.813240067006331628e+03,6.009744375085884940e+02,7.514172674747031806e+02,3.558772094647500126e+03,2.445497095768292183e+03,9.484992027282714844e+00,4.207052886486053467e-01,-3.059675097465515137e-01,3.500000000000000000e+01
7.933271205516463169e+02,8.718216153253680432e+02,2.678103082328896562e+03,3.901991053087368073e+03,7.526768653345898201e+02,9.127214538621933571e+02,3.434790203264830780e+03,2.593214257003308830e+03,9.484992027282714844e+00,4.207052886486053467e-01,-3.059675097465515137e-01,3.600000000000000000e+01
7.897753026172672435e+02,8.588689230421134653e+02,2.756725751369305272e+03,4.264581937765191469e+03,7.668271839099211320e+02,9.088533603288623226e+02,3.086096828520210238e+03,2.565730744015235359e+03,9.484992027282714844e+00,4.207052886486053467e-01,-3.059675097465515137e-01,3.700000000000000000e+01
8.564803905704026192e+02,9.122414310485647775e+02,2.804589325915912923e+03,4.415396953622841465e+03,8.299885965479531933e+02,9.531218561193343248e+02,2.137368568417730785e+03,2.594773463934354368e+03,9.484992027282714844e+00,4.207052886486053467e-01,-3.059675097465515137e-01,3.800000000000000000e+01
1.032765237320111737e+03,1.092386147699462526e+03,2.921595386195139781e+03,4.369450450963606272e+03,9.808340356618687110e+02,1.111142068130881626e+03,1.708297883127750993e+03,2.774292755916814713e+03,9.484992027282714844e+00,4.207052886486053467e-01,-3.059675097465515137e-01,3.900000000000000000e+01
1.184274004543101910e+03,1.263238945619712013e+03,3.108843664091314622e+03,4.438393422188541990e+03,1.119402429423015747e+03,1.273719205608565289e+03,2.228117169608348831e+03,2.975615572146873546e+03,9.484992027282714844e+00,4.207052886486053467e-01,-3.059675097465515137e-01,4.000000000000000000e+01
1.280086466494858541e+03,1.364225095720929176e+03,3.256488997145608664e+03,4.611733284293932229e+03,1.218732799954646680e+03,1.381663556877536848e+03,2.184816524915962873e+03,3.077889604046503791e+03,9.484992027282714844e+00,4.207052886486053467e-01,-3.059675097465515137e-01,4.100000000000000000e+01
1.355799831183823699e+03,1.425463066529021717e+03,3.306830232844577949e+03,4.744902137786810272e+03,1.300261834478943229e+03,1.446947606003765031e+03,1.011254057828914824e+03,3.091812995488117849e+03,9.484992027282714844e+00,4.207052886486053467e-01,-3.059675097465515137e-01,4.200000000000000000e+01
1.420259267643373732e+03,1.483919609434610265e+03,3.338334003384235075e+03,4.852468064074253562e+03,1.365429176095103003e+03,1.497724192120066391e+03,2.628465363936538779e+02,3.117489697582129793e+03,9.484992027282714844e+00,4.207052886486053467e-01,-3.059675097465515137e-01,4.300000000000000000e+01
1.512384424160338767e+03,1.589172886150444583e+03,3.447616836810727818e+03,4.943223270225747910e+03,1.444708015248704669e+03,1.588099450584446004e+03,5.215915064084083497e+02,3.241481076670846505e+03,9.484992027282714844e+00,4.207052886486053467e-01,-3.059675097465515137e-01,4.400000000000000000e+01
1.662889237907024153e+03,1.748800343276390322e+03,3.616286326522723812e+03,4.979128316542557513e+03,1.569884035372836024e+03,1.736045406330206561e+03,4.525312957858036498e+02,3.426957723267208621e+03,9.484992027282714844e+00,4.207052886486053467e-01,-3.059675097465515137e-01,4.500000000000000000e+01
1.802125540808869346e+03,1.876334590624597922e+03,3.741795567579577437e+03,5.031631667083458524e+03,1.693030873394510081e+03,1.863262926041156334e+03,-2.139758126039723720e+02,3.538871465031275420e+03,9.484992027282714844e+00,4.207052886486053467e-01,-3.059675097465515137e-01,4.600000000000000000e+01
1.858208729717581264e+03,1.912908760272977133e+03,3.780325131258752208e+03,5.177467331015284799e+03,1.752410621940758119e+03,1.904990432606014565e+03,-4.293030841704353406e+02,3.530597088043412896e+03,9.484992027282714844e+00,4.207052886486053467e-01,-3.059675097465515137e-01,4.700000000000000000e+01
1.886597055171412421e+03,1.935643485327229882e+03,3.803828723822427946e+03,5.326250719999249668e+03,1.781430673181810334e+03,1.922033226607333518e+03,-7.447203843808615602e+02,3.524397739354648820e+03,9.484992027282714844e+00,4.207052886486053467e-01,-3.059675097465515137e-01,4.800000000000000000e+01
1.982497879358804084e+03,2.043734287981902526e+03,3.900477199313242181e+03,5.364837712219774403e+03,1.857064702130074465e+03,2.010193750653191501e+03,-2.201387805108826342e+03,3.638579689316405165e+03,9.484992027282714844e+00,4.207052886486053467e-01,-3.059675097465515137e-01,4.900000000000000000e+01
2.131616413015024591e+03,2.206567646221666564e+03,4.054519764013881286e+03,5.352433575882687364e+03,1.980123766784305872e+03,2.155770272843263228e+03,-2.543383612511869615e+03,3.815535043584765390e+03,9.484992027282714844e+00,4.207052886486053467e-01,-3.059675097465515137e-01,5.000000000000000000e+01
2.240727001967638898e+03,2.312261593758407798e+03,4.167963731317678139e+03,5.419846244968870451e+03,2.079941326521436167e+03,2.260820480174749719e+03,1.393514914105634944e+03,3.905751237450151166e+03,9.484992027282714844e+00,4.207052886486053467e-01,-3.059675097465515137e-01,5.100000000000000000e+01
2.277314883818713497e+03,2.328546496737993948e+03,4.195443102520757748e+03,5.568977096598942808e+03,2.120688955749142224e+03,2.285159050925186420e+03,7.663406090992721147e+03,3.880006501966210635e+03,9.484992027282714844e+00,3.059675097465515137e-01,-3.442134261131286621e-01,5.200000000000000000e+01
2.306800058042107594e+03,2.340932967322577497e+03,4.206845319358882989e+03,5.683108406063958682e+03,2.147979345158368687e+03,2.297540265774014188e+03,1.096596550380216831e+04,3.867481984684622603e+03,9.484992027282714844e+00,3.059675097465515137e-01,-3.442134261131286621e-01,5.300000000000000000e+01
2.394338476584725868e+03,2.429566698327022095e+03,4.290407576381698163e+03,5.704559939261578620e+03,2.220127582860177426e+03,2.375885468172709807e+03,1.025007940446614521e+04,3.973506456095207341e+03,9.484992027282714844e+00,3.059675097465515137e-01,-3.442134261131286621e-01,5.400000000000000000e+01
2.526171324443935191e+03,2.569594529498960583e+03,4.429422950881909856e+03,5.689268477544273992e+03,2.334050260838468603e+03,2.507297115873020630e+03,9.140566071142471628e+03,4.139084939348442276e+03,9.484992027282714844e+00,3.059675097465515137e-01,-3.442134261131286621e-01,5.500000000000000000e+01
2.623496945619350754e+03,2.661750604347806529e+03,4.525969842747472285e+03,5.738566611810820177e+03,2.425182829907361338e+03,2.601765115951218831e+03,9.378158838582812677e+03,4.220028191536184750e+03,9.484992027282714844e+00,3.059675097465515137e-01,-3.442134261131286621e-01,5.600000000000000000e+01
2.650910967753753994e+03,2.670169602831876546e+03,4.535851648156722149e+03,5.859462629075476798e+03,2.457912235074876662e+03,2.618162720336670191e+03,9.173423393483622931e+03,4.187835839810162724e+03,9.484992027282714844e+00,3.059675097465515137e-01,-3.442134261131286621e-01,5.700000000000000000e+01
2.665710708084404359e+03,2.672629055557008996e+03,4.529623931207508576e+03,5.956865053362827894e+03,2.475188631968499067e+03,2.621870804658613906e+03,7.896187782390582470e+03,4.168992304982191854e+03,9.484992027282714844e+00,3.059675097465515137e-01,-3.442134261131286621e-01,5.800000000000000000e+01
2.738352947055298046e+03,2.752815502788563663e+03,4.596038945932496972e+03,5.966100961018360977e+03,2.538165893471394611e+03,2.692547897387451485e+03,7.260232537523522296e+03,4.268032372985462644e+03,9.484992027282714844e+00,3.059675097465515137e-01,-3.442134261131286621e-01,5.900000000000000000e+01
2.854360626538215001e+03,2.884328513773209124e+03,4.720406928778707879e+03,5.941615634352594498e+03,2.641732209058178341e+03,2.812636774176692143e+03,7.755500265621742983e+03,4.422059810051656314e+03,9.484992027282714844e+00,3.059675097465515137e-01,-3.442134261131286621e-01,6.000000000000000000e+01
2.935233283223063609e+03,2.967567365254898050e+03,4.805139687548597976e+03,5.981201921290076825e+03,2.722836761872162242e+03,2.892500803977780379e+03,7.961966057090628965e+03,4.488348075450902797e+03,9.484992027282714844e+00,3.059675097465515137e-01,-3.442134261131286621e-01,6.100000000000000000e+01
2.948753628741422744e+03,2.967919885440611779e+03,4.804806718475791058e+03,6.091276859057028560e+03,2.747744416178843494e+03,2.895247206431311497e+03,7.370437998225888805e+03,4.441847142688310669e+03,9.484992027282714844e+00,3.059675097465515137e-01,-3.442134261131286621e-01,6.200000000000000000e+01
2.953819173405310721e+03,2.963442303396996067e+03,4.788798995536535585e+03,6.178147417575228246e+03,2.757211676991252716e+03,2.887496629305223905e+03,6.865259064289241905e+03,4.409001715076988148e+03,9.484992027282714844e+00,3.059675097465515137e-01,-3.442134261131286621e-01,6.300000000000000000e+01
3.018346910784166084e+03,3.036369786334770197e+03,4.844265840963904338e+03,6.176868345692839284e+03,2.809314641152182048e+03,2.947752798442830226e+03,6.764965365811648553e+03,4.492897899965302713e+03,9.484992027282714844e+00,3.059675097465515137e-01,-3.442134261131286621e-01,6.400000000000000000e+01
3.125547343919328341e+03,3.158957580217887880e+03,4.955111156779517842e+03,6.140625655782741887e+03,2.899755693873325527e+03,3.059259462254749451e+03,6.635732692995727120e+03,4.632040627261098052e+03,9.484992027282714844e+00,3.059675097465515137e-01,-3.442134261131286621e-01,6.500000000000000000e+01
3.197242655082235615e+03,3.231922383288985657e+03,5.025702998330859373e+03,6.167527106096323223e+03,2.968304133724473104e+03,3.133081073787464447e+03,6.508534372446140878e+03,4.686311729666036626e+03,9.484992027282714844e+00,3.059675097465515137e-01,-3.442134261131286621e-01,6.600000000000000000e+01
3.201205588531967805e+03,3.222711633606942087e+03,5.014495838612452644e+03,6.265261630917945695e+03,2.981748683254706066e+03,3.129319420735385847e+03,6.670707214616979400e+03,4.630264009723073286e+03,9.484992027282714844e+00,3.059675097465515137e-01,-3.442134261131286621e-01,6.700000000000000000e+01
3.195662102975351445e+03,3.211173201139815774e+03,4.990493047064079292e+03,6.340834817429095892e+03,2.979395653864390169e+03,3.111280602958219788e+03,6.855971659853101301e+03,4.587192695151343287e+03,9.484992027282714844e+00,3.059675097465515137e-01,-3.442134261131286621e-01,6.800000000000000000e+01
3.249930894358588375e+03,3.278168408171649389e+03,5.036609389554952941e+03,6.329793436375819510e+03,3.018950793784208599e+03,3.158739754500149047e+03,6.731059981331082781e+03,4.658557285226572276e+03,9.484992027282714844e+00,3.059675097465515137e-01,-3.442134261131286621e-01,6.900000000000000000e+01
3.349059047329275018e+03,3.392429715032547847e+03,5.136199391230512447e+03,6.285301794290782709e+03,3.097717484910308485e+03,3.258790819832279340e+03,6.547003339077499732e+03,4.785117085710688116e+03,9.484992027282714844e+00,3.059675097465515137e-01,-3.442134261131286621e-01,7.000000000000000000e+01
3.413722170168199682e+03,3.453825169352013290e+03,5.197368256953660421e+03,6.303483025438898039e+03,3.157394196588154500e+03,3.323985589482570049e+03,6.598430462010583142e+03,4.830177777617302127e+03,9.484992027282714844e+00,3.059675097465515137e-01,-3.442134261131286621e-01,7.100000000000000000e+01
3.409717055722896475e+03,3.432214836733857283e+03,5.178964624927601108e+03,6.389480915129544883e+03,3.164874488863396891e+03,3.313460886293442400e+03,6.705519466144212856e+03,4.768713152748481662e+03,9.484992027282714844e+00,3.059675097465515137e-01,-3.442134261131286621e-01,7.200000000000000000e+01
3.395728600950960754e+03,3.408248155288475118e+03,5.146110714489745988e+03,6.450531990642551136e+03,3.157214797580133109e+03,3.290131605447998481e+03,6.688405541136149623e+03,4.721435739339728570e+03,9.484992027282714844e+00,3.059675097465515137e-01,-3.442134261131286621e-01,7.300000000000000000e+01
3.441756765375771010e+03,3.461190037865338127e+03,5.180993864104334534e+03,6.424732876175821730e+03,3.189825676843156998e+03,3.333941483680022429e+03,6.673426833107083439e+03,4.787614487621106491e+03,9.484992027282714844e+00,3.059675097465515137e-01,-3.442134261131286621e-01,7.400000000000000000e+01
3.531817468471180291e+03,3.560827984010743876e+03,5.270672801669457840e+03,6.366625233885580201e+03,3.260053406228677886e+03,3.430376880584978608e+03,6.655832195868438248e+03,4.907401274800560714e+03,9.484992027282714844e+00,3.059675097465515137e-01,-3.442134261131286621e-01,7.500000000000000000e+01
3.587091604402983648e+03,3.611359102100876498e+03,5.324862061960567189e+03,6.372156101119949199e+03,3.310726169626058891e+03,3.489370603281460262e+03,6.494419334740482554e+03,4.943611553845496019e+03,9.484992027282714844e+00,3.059675097465515137e-01,-3.442134261131286621e-01,7.600000000000000000e+01
3.576194295024524763e+03,3.584412552145365225e+03,5.300416969817730205e+03,6.447087782084556238e+03,3.308688579215337995e+03,3.469887983854143386e+03,6.435661712847214403e+03,4.871038891990388038e+03,9.484992027282714844e+00,3.059675097465515137e-01,-3.442134261131286621e-01,7.700000000000000000e+01
3.557648361764138826e+03,3.557601283688160038e+03,5.261404839696881027e+03,6.499792121956946175e+03,3.291030765940409310e+03,3.437206931807093042e+03,6.728728906876080146e+03,4.811855737268080702e+03,9.484992027282714844e+00,3.059675097465515137e-01,-3.442134261131286621e-01,7.800000000000000000e+01
3.597282081755588479e+03,3.606544330497079045e+03,5.290213661089199377e+03,6.467980259991317325e+03,3.315036846448944289e+03,3.472564112448836568e+03,6.825743578582991177e+03,4.867203903430156060e+03,9.484992027282714844e+00,3.059675097465515137e-01,-3.442134261131286621e-01,7.900000000000000000e+01
3.677635684183307603e+03,3.699929096136425869e+03,5.372240236151428689e+03,6.404884558754948557e+03,3.379507368431336999e+03,3.560867388135965484e+03,6.245303702174536738e+03,4.977669331836923448e+03,9.484992027282714844e+00,3.059675097465515137e-01,-3.442134261131286621e-01,8.000000000000000000e+01
3.723363263278498380e+03,3.742938138701581465e+03,5.415455996600527214e+03,6.405831599923008071e+03,3.426263426524449642e+03,3.612421853849376021e+03,6.008602976242636032e+03,5.006169273644971327e+03,9.484992027282714844e+00,3.059675097465515137e-01,-3.442134261131286621e-01,8.100000000000000000e+01
3.704788519413128597e+03,3.709180889154489250e+03,5.378589848837825230e+03,6.475938344287401378e+03,3.421291558680181879e+03,3.587387127794173466e+03,7.467917241173455295e+03,4.928346445882061744e+03,9.484992027282714844e+00,3.059675097465515137e-01,-3.442134261131286621e-01,8.200000000000000000e+01
3.677602908029736682e+03,3.677328142227139324e+03,5.328975322380658326e+03,6.522467882216768885e+03,3.402691093726063627e+03,3.549800688978121343e+03,9.912239751305685786e+03,4.865958785521155733e+03,9.484992027282714844e+00,3.442134261131286621e-01,-3.059675097465515137e-01,8.300000000000000000e+01
3.706632712790786627e+03,3.720995199797511304e+03,5.349291497357059598e+03,6.483247035224422689e+03,3.427233775080508167e+03,3.577677470568025910e+03,1.121833045590963229e+04,4.917527944580906478e+03,9.484992027282714844e+00,3.442134261131286621e-01,-3.059675097465515137e-01,8.400000000000000000e+01
3.778182732317978207e+03,3.805812941128497641e+03,5.423474524957048743e+03,6.412625016234839677e+03,3.490246396592952806e+03,3.654817622232233134e+03,1.087799891985294744e+04,5.021883328473782967e+03,9.484992027282714844e+00,3.442134261131286621e-01,-3.059675097465515137e-01,8.500000000000000000e+01
3.819315696732089691e+03,3.837134022643842400e+03,5.459721579617013049e+03,6.405479414514555174e+03,3.531658225386503545e+03,3.693545412861469686e+03,1.038015308107887540e+04,5.043106439945348939e+03,9.484992027282714844e+00,3.442134261131286621e-01,-3.059675097465515137e-01,8.600000000000000000e+01
3.798021424880461382e+03,3.791582126267586773e+03,5.417442781679252221e+03,6.465716668938682233e+03,3.519343550283311743e+03,3.656862034217583641e+03,1.061072258862154558e+04,4.958549780730283601e+03,9.484992027282714844e+00,3.442134261131286621e-01,-3.059675097465515137e-01,8.700000000000000000e+01
3.767657243436801309e+03,3.750181110105735115e+03,5.362163200945487915e+03,6.501985713636975561e+03,3.492880031603457610e+03,3.611083412969200253e+03,1.088519730440818603e+04,4.889864732206831832e+03,9.484992027282714844e+00,3.442134261131286621e-01,-3.059675097465515137e-01,8.800000000000000000e+01
3.793326707429931048e+03,3.788028169671190881e+03,5.374000806008804830e+03,6.454679115862901199e+03,3.508203764200794922e+03,3.635036029358876476e+03,1.065637074953641240e+04,4.934888335916936740e+03,9.484992027282714844e+00,3.442134261131286621e-01,-3.059675097465515137e-01,8.900000000000000000e+01
3.860585893756312544e+03,3.871835449008427531e+03,5.437451396287610805e+03,6.377578550999865911e+03,3.561135841426993466e+03,3.710883889317201465e+03,1.037240384294858086e+04,5.032997310653309796e+03,9.484992027282714844e+00,3.442134261131286621e-01,-3.059675097465515137e-01,9.000000000000000000e+01
3.893952948464067958e+03,3.904685447437883340e+03,5.463926578612022240e+03,6.363179861298131982e+03,3.594103944519602464e+03,3.748696483670378257e+03,1.041243836078887762e+04,5.049374932360228740e+03,9.484992027282714844e+00,3.442134261131286621e-01,-3.059675097465515137e-01,9.100000000000000000e+01
3.861476231812228434e+03,3.857588934531687300e+03,5.414968913233211424e+03,6.415728919587805649e+03,3.575439635468509096e+03,3.710996173176484263e+03,1.052637564414005828e+04,4.961240132346066275e+03,9.484992027282714844e+00,3.442134261131286621e-01,-3.059675097465515137e-01,9.200000000000000000e+01
3.820117811629240350e+03,3.809097634396585363e+03,5.355988367655798356e+03,6.445726521748708365e+03,3.543116103143480359e+03,3.663365796833896638e+03,1.048671953375798512e+04,4.888485677745929934e+03,9.484992027282714844e+00,3.442134261131286621e-01,-3.059675097465515137e-01,9.300000000000000000e+01
3.837947579703795782e+03,3.837871575135253806e+03,5.366342755320371907e+03,6.392973722406069101e+03,3.553384317909030869e+03,3.681733225367403065e+03,1.037936677141003565e+04,4.927144749328598664e+03,9.484992027282714844e+00,3.442134261131286621e-01,-3.059675097465515137e-01,9.400000000000000000e+01
3.900760406452805455e+03,3.914485228909592479e+03,5.429304503661791387e+03,6.309830779224661455e+03,3.603381784739143313e+03,3.747391291183993417e+03,1.027475739762211742e+04,5.016823544382654291e+03,9.484992027282714844e+00,3.442134261131286621e-01,-3.059675097465515137e-01,9.500000000000000000e+01
3.932054422102648005e+03,3.942026667800801988e+03,5.453783130664588498e+03,6.289762528328961707e+03,3.633934761259240986e+03,3.774726555882599314e+03,1.018824004161254197e+04,5.025110287672738195e+03,9.484992027282714844e+00,3.442134261131286621e-01,-3.059675097465515137e-01,9.600000000000000000e+01
3.898209122917986406e+03,3.890225414406170330e+03,5.399211893906833211e+03,6.338028316501988229e+03,3.611001245162634405e+03,3.730668205022866459e+03,1.019745704788216608e+04,4.931619241398560916e+03,9.484992027282714844e+00,3.442134261131286621e-01,-3.059675097465515137e-01,9.700000000000000000e+01
3.853587994757570414e+03,3.836599065094039361e+03,5.331507839706848245e+03,6.363697592653288666e+03,3.573668048775414718e+03,3.680394413686271946e+03,1.026265288230777878e+04,4.856791674344934108e+03,9.484992027282714844e+00,3.442134261131286621e-01,-3.059675097465515137e-01,9.800000000000000000e+01
3.864150129938939699e+03,3.857771504223166630e+03,5.331851334944632981e+03,6.305890436499025782e+03,3.580015432387695910e+03,3.697607831550256833e+03,1.019788896378251047e+04,4.895365338701691144e+03,9.484992027282714844e+00,3.442134261131286621e-01,-3.059675097465515137e-01,9.900000000000000000e+01
3.916270839382458689e+03,3.923570127297649378e+03,5.384565522087757927e+03,6.218768830403601896e+03,3.625579348196445153e+03,3.762763519203339456e+03,9.998409708904167928e+03,4.984522016984785296e+03,9.484992027282714844e+00,3.442134261131286621e-01,-3.059675097465515137e-01,1.000000000000000000e+02
3.937315813911385249e+03,3.940401975896494150e+03,5.400213232152527780e+03,6.195804996481110720e+03,3.649659922646568702e+03,3.788955098919181182e+03,9.889443684989706526e+03,4.989617699843458468e+03,9.484992027282714844e+00,3.442134261131286621e-01,-3.059675097465515137e-01,1.010000000000000000e+02
3.898492765390970817e+03,3.881845777357061706e+03,5.341362289418306318e+03,6.239371899439628578e+03,3.620603904717635032e+03,3.741372643536836677e+03,9.955532339335357392e+03,4.890106892694414455e+03,9.484992027282714844e+00,3.442134261131286621e-01,-3.059675097465515137e-01,1.020000000000000000e+02
3.855161115333537964e+03,3.825794334748960864e+03,5.274632950527456160e+03,6.258442671314026484e+03,3.579342978498522371e+03,3.685915072447540297e+03,1.000930524200105720e+04,4.807901241920447319e+03,9.484992027282714844e+00,3.442134261131286621e-01,-3.059675097465515137e-01,1.030000000000000000e+02
3.868391716678436751e+03,3.848014703425431435e+03,5.276851290404789324e+03,6.196077475294900978e+03,3.581300937009880727e+03,3.697961310354580291e+03,9.894830132668172155e+03,4.838128472035921732e+03,9.484992027282714844e+00,3.059675097465515137e-01,-3.442134261131286621e-01,1.040000000000000000e+02
3.919032558357428570e+03,3.917989258081577645e+03,5.327533274333587542e+03,6.107623262714256271e+03,3.619826904515344268e+03,3.757330049025179505e+03,9.702628385431562492e+03,4.917585212815627528e+03,9.484992027282714844e+00,3.059675097465515137e-01,-3.442134261131286621e-01,1.050000000000000000e+02
3.934434672676475657e+03,3.939481619508576387e+03,5.337056900662840235e+03,6.082697742283356092e+03,3.636735286467594506e+03,3.776734141406792787e+03,9.616055298129655057e+03,4.913692212294984529e+03,9.484992027282714844e+00,3.059675097465515137e-01,-3.442134261131286621e-01,1.060000000000000000e+02
3.889103457559524486e+03,3.881962786136235991e+03,5.270194256924289220e+03,6.121284616866262695e+03,3.602868842302380926e+03,3.724002719746431012e+03,9.664125989668504189e+03,4.809003058924439756e+03,9.484992027282714844e+00,3.059675097465515137e-01,-3.442134261131286621e-01,1.070000000000000000e+02
3.839437491435721768e+03,3.822768376072177034e+03,5.194099638012529795e+03,6.134448004969743124e+03,3.557606756828021389e+03,3.666405837880463878e+03,9.697549603765126449e+03,4.724404007842835199e+03,9.484992027282714844e+00,3.059675097465515137e-01,-3.442134261131286621e-01,1.080000000000000000e+02
3.846412279221826793e+03,3.839503909214483429e+03,5.186161908097517880e+03,6.066739465853395814e+03,3.554950612863343395e+03,3.676324339453645280e+03,9.589141306962686940e+03,4.751211797273498632e+03,9.484992027282714844e+00,3.059675097465515137e-01,-3.442134261131286621e-01,1.090000000000000000e+02
3.893049786334648161e+03,3.900994355110438391e+03,5.229294798922344853e+03,5.972035175013992557e+03,3.590285989509101000e+03,3.731191895246806325e+03,9.400930783530966437e+03,4.826262686785661572e+03,9.484992027282714844e+00,3.059675097465515137e-01,-3.442134261131286621e-01,1.100000000000000000e+02
3.908204559921005966e+03,3.910864495724536937e+03,5.237169626466664340e+03,5.939660920347550018e+03,3.606745731701381374e+03,3.745253652425960354e+03,9.303210193967684972e+03,4.820081479116959599e+03,9.484992027282714844e+00,3.059675097465515137e-01,-3.442134261131286621e-01,1.110000000000000000e+02
3.863963458635325424e+03,3.843691641530657762e+03,5.173421813014838335e+03,5.971738795485059200e+03,3.572664724666054553e+03,3.687318377703866645e+03,9.345515320305752539e+03,4.714330625336138837e+03,9.484992027282714844e+00,3.059675097465515137e-01,-3.442134261131286621e-01,1.120000000000000000e+02
3.814249541410897109e+03,3.780745878071799780e+03,5.100957677959891953e+03,5.980023353739202321e+03,3.524935274467475665e+03,3.623053763357837397e+03,9.379399916236372519e+03,4.625926666691621904e+03,9.484992027282714844e+00,3.059675097465515137e-01,-3.442134261131286621e-01,1.130000000000000000e+02
3.820831581940509295e+03,3.795256652838824721e+03,5.094219343468494117e+03,5.907725398997683442e+03,3.518360159154962275e+03,3.625402450981689526e+03,9.268343740565172993e+03,4.646759349022548122e+03,9.484992027282714844e+00,3.059675097465515137e-01,-3.442134261131286621e-01,1.140000000000000000e+02
3.866987095710147514e+03,3.850883184975653876e+03,5.135690705688995877e+03,5.808675392633393130e+03,3.549747270466211376e+03,3.675309122581896190e+03,9.076092004033007470e+03,4.717951324114494128e+03,9.484992027282714844e+00,3.059675097465515137e-01,-3.442134261131286621e-01,1.150000000000000000e+02
3.878725310686104876e+03,3.854610466662322324e+03,5.139375496925244079e+03,5.773057506583977556e+03,3.562040165993257233e+03,3.687644602748597208e+03,8.978308552182104904e+03,4.710228479242212416e+03,9.484992027282714844e+00,3.059675097465515137e-01,-3.442134261131286621e-01,1.160000000000000000e+02
3.826252710667082283e+03,3.786047368789628763e+03,5.069208730989044852e+03,5.801791142755761939e+03,3.524077459004952743e+03,3.627976331809126350e+03,9.019593404708646631e+03,4.601988348694212618e+03,9.484992027282714844e+00,3.059675097465515137e-01,-3.442134261131286621e-01,1.170000000000000000e+02
3.765333541188681920e+03,3.723220886931289897e+03,4.989053073337853675e+03,5.805207628929167186e+03,3.474760029114536792e+03,3.560862907171233473e+03,9.051144175698731488e+03,4.510538050423838285e+03,9.484992027282714844e+00,3.059675097465515137e-01,-3.442134261131286621e-01,1.180000000000000000e+02
3.760645204120099606e+03,3.734011484123248920e+03,4.974833772935037814e+03,5.728495031265218131e+03,3.468687085018060770e+03,3.561839897274212035e+03,8.935752548478363678e+03,4.530681247996750244e+03,9.484992027282714844e+00,3.059675097465515137e-01,-3.442134261131286621e-01,1.190000000000000000e+02
3.797261365984922577e+03,3.784630099462610360e+03,5.009674320931261718e+03,5.628402940625970587e+03,3.499225239279722246e+03,3.613109339316809383e+03,8.737459638935117255e+03,4.602672967572275411e+03,9.484992027282714844e+00,3.059675097465515137e-01,-3.442134261131286621e-01,1.200000000000000000e+02
3.801990542356553306e+03,3.787089995180580445e+03,5.007061148254406362e+03,5.594457748764975804e+03,3.507619925584158409e+03,3.627972492454902749e+03,8.633407078118523714e+03,4.594856658815948322e+03,9.484992027282714844e+00,3.059675097465515137e-01,-3.442134261131286621e-01,1.210000000000000000e+02
3.744323940353054695e+03,3.718702553884565987e+03,4.931009564546299771e+03,5.625244039998635344e+03,3.465272751343984964e+03,3.571230258311484249e+03,8.669231368564665900e+03,4.487390849614357649e+03,9.484992027282714844e+00,3.059675097465515137e-01,-3.442134261131286621e-01,1.220000000000000000e+02
3.678301625113548653e+03,3.652301353120238673e+03,4.846998945669216482e+03,5.630966397537911689e+03,3.413246533596513473e+03,3.507487536516359341e+03,8.696876019414037728e+03,4.399370956329578803e+03,9.484992027282714844e+00,3.059675097465515137e-01,-3.442134261131286621e-01,1.230000000000000000e+02
3.668527006857112156e+03,3.657068739840993658e+03,4.831892486456477855e+03,5.556640223419763061e+03,3.404488652762912352e+03,3.509671342130862286e+03,8.580574965114379665e+03,4.421312125285881848e+03,9.484992027282714844e+00,3.059675097465515137e-01,-3.442134261131286621e-01,1.240000000000000000e+02
3.702073735895830850e+03,3.704150376791155395e+03,4.867113313983520129e+03,5.455885053416813207e+03,3.430486785561407487e+03,3.556571357970554345e+03,8.384634117615696596e+03,4.488795766127107527e+03,9.484992027282714844e+00,3.059675097465515137e-01,-3.442134261131286621e-01,1.250000000000000000e+02
3.707436209944974962e+03,3.706111013502017613e+03,4.864163473037925542e+03,5.416367837661769045e+03,3.433633446104321592e+03,3.562807818912660878e+03,8.283367646321292341e+03,4.473051511989068786e+03,9.484992027282714844e+00,3.059675097465515137e-01,-3.442134261131286621e-01,1.260000000000000000e+02
3.654676256219791867e+03,3.637816380934715198e+03,4.787915066049240522e+03,5.440241946226737127e+03,3.387103983123511171e+03,3.498065919902904170e+03,8.319310289577701042e+03,4.359765606749947437e+03,9.484992027282714844e+00,3.059675097465515137e-01,-3.442134261131286621e-01,1.270000000000000000e+02
3.597178199457981464e+03,3.571965813093483121e+03,4.705721259507865398e+03,5.442198294868221637e+03,3.332294421904934097e+03,3.428650586276135982e+03,8.344974131108881920e+03,4.267727397292919704e+03,9.484992027282714844e+00,3.059675097465515137e-01,-3.442134261131286621e-01,1.280000000000000000e+02
3.595924077102373303e+03,3.578252514375636565e+03,4.693516573416660322e+03,5.367118768799091413e+03,3.322641886151634935e+03,3.425240117861442741e+03,8.227538175688048796e+03,4.284566776919145013e+03,9.408499717712402344e+00,2.677215635776519775e-01,-3.442134261131286621e-01,1.290000000000000000e+02
3.632897273281380876e+03,3.625761512181024955e+03,4.729881264335220294e+03,5.266375556362308089e+03,3.350192162015108806e+03,3.466163448190636700e+03,8.032266168843709238e+03,4.347213589401584613e+03,9.408499717712402344e+00,2.677215635776519775e-01,-3.442134261131286621e-01,1.300000000000000000e+02
3.635911166310701446e+03,3.625523843364904224e+03,4.725286776313396331e+03,5.227228646572446451e+03,3.355592463761011459e+03,3.468396016097453412e+03,7.931660245011265943e+03,4.329330782141844793e+03,9.408499717712402344e+00,2.677215635776519775e-01,-3.442134261131286621e-01,1.310000000000000000e+02
3.579376186499480355e+03,3.554315751491426454e+03,4.645584865559028913e+03,5.251200314288147638e+03,3.309098384509836251e+03,3.401511023731987734e+03,7.966683314143345342e+03,4.214700901472105215e+03,9.408499717712402344e+00,2.677215635776519775e-01,-3.442134261131286621e-01,1.320000000000000000e+02
3.519388624707852614e+03,3.486783808644426244e+03,4.558799867436016939e+03,5.250504426183847499e+03,3.251377854497484805e+03,3.328324204361020747e+03,7.990327654985804656e+03,4.119448500647465153e+03,9.408499717712402344e+00,2.677215635776519775e-01,-3.442134261131286621e-01,1.330000000000000000e+02
3.515764181260940859e+03,3.491765712389032160e+03,4.541348585295406338e+03,5.169633532068081877e+03,3.236838901628781059e+03,3.318319747916550114e+03,7.871067417195189591e+03,4.132426891089353376e+03,9.408499717712402344e+00,2.677215635776519775e-01,-3.442134261131286621e-01,1.340000000000000000e+02
3.550396507546500288e+03,3.537286732629273502e+03,4.573512783179554390e+03,5.063386108803804746e+03,3.258154127376342331e+03,3.352949671330974525e+03,7.674513914369075792e+03,4.192332334339470435e+03,9.408499717712402344e+00,2.677215635776519775e-01,-3.442134261131286621e-01,1.350000000000000000e+02
3.552935423546417042e+03,3.534876496993573710e+03,4.567498847691012998e+03,5.021528398562924849e+03,3.257521063043771392e+03,3.351756226796022020e+03,7.572350842626844496e+03,4.171779916832833806e+03,9.408499717712402344e+00,2.677215635776519775e-01,-3.442134261131286621e-01,1.360000000000000000e+02
3.497082409959270080e+03,3.461547572933227457e+03,4.488700175777385084e+03,5.044468554534438226e+03,3.208135376911340245e+03,3.283615112131626120e+03,7.604738958051608279e+03,4.054021556526171025e+03,9.408499717712402344e+00,2.677215635776519775e-01,-3.442134261131286621e-01,1.370000000000000000e+02
3.436260888059783156e+03,3.391577658252159381e+03,4.402883666733489008e+03,5.043154016068436249e+03,3.151283655474619081e+03,3.210563280223711445e+03,7.625207165803587486e+03,3.957110512473378549e+03,9.408499717712402344e+00,2.677215635776519775e-01,-3.442134261131286621e-01,1.380000000000000000e+02
3.429988775779236676e+03,3.393865473235338868e+03,4.384711265348307279e+03,4.962668193048380999e+03,3.138657559541994488e+03,3.203035580357283834e+03,7.504006367298352416e+03,3.970677012869102327e+03,9.408499717712402344e+00,2.677215635776519775e-01,-3.442134261131286621e-01,1.390000000000000000e+02
3.460755303497332079e+03,3.435640827331575565e+03,4.414480635492198417e+03,4.857492917868414224e+03,3.161678160913474130e+03,3.242437749825613537e+03,7.307817629646067871e+03,4.032095579443893257e+03,9.408499717712402344e+00,2.677215635776519775e-01,-3.442134261131286621e-01,1.400000000000000000e+02
3.456360591809025664e+03,3.426763097217864924e+03,4.405597322719226213e+03,4.815351414941345865e+03,3.164398821042935197e+03,3.246329695029954564e+03,7.207239945909384005e+03,4.014010542415734562e+03,9.408499717712402344e+00,2.677215635776519775e-01,-3.442134261131286621e-01,1.410000000000000000e+02
3.389596109811333918e+03,3.345411029152201991e+03,4.324338211189748108e+03,4.836297267800295231e+03,3.119874831239066225e+03,3.182780340581976816e+03,7.240677999998631094e+03,3.900708360735754468e+03,9.408499717712402344e+00,2.677215635776519775e-01,-3.442134261131286621e-01,1.420000000000000000e+02
3.317464695490581107e+03,3.269981859905157762e+03,4.236155151069156091e+03,4.833807946796515353e+03,3.065435150087809234e+03,3.114999959073988066e+03,7.261543748271526056e+03,3.808638465400841596e+03,9.408499717712402344e+00,2.677215635776519775e-01,-3.442134261131286621e-01,1.430000000000000000e+02
3.303297925194215168e+03,3.270865618072863981e+03,4.215033504578274005e+03,4.754893158027074605e+03,3.050744137877140020e+03,3.112994514974204321e+03,7.140907250194599328e+03,3.824475374254154303e+03,9.408499717712402344e+00,2.677215635776519775e-01,-3.442134261131286621e-01,1.440000000000000000e+02
3.329586419027988995e+03,3.312887714958206743e+03,4.241512539437095256e+03,4.652742339383790750e+03,3.070054730681889851e+03,3.155147431891447013e+03,6.945038465031029773e+03,3.885534227692902277e+03,9.408499717712402344e+00,2.677215635776519775e-01,-3.442134261131286621e-01,1.450000000000000000e+02
3.323445691133098990e+03,3.304731577032999667e+03,4.229812600592765193e+03,4.612388055381452432e+03,3.070049545750826837e+03,3.157620826558393674e+03,6.843626828834845583e+03,3.866579654942087473e+03,9.408499717712402344e+00,2.677215635776519775e-01,-3.442134261131286621e-01,1.460000000000000000e+02
3.258313161757036141e+03,3.225457869898871650e+03,4.146555959070161407e+03,4.632771759657250186e+03,3.022667598881738741e+03,3.090652573689045312e+03,6.875822317257763643e+03,3.752615656697710619e+03,9.408499717712402344e+00,2.677215635776519775e-01,-3.442134261131286621e-01,1.470000000000000000e+02
3.189563056597954528e+03,3.152252285528217726e+03,4.057204519914302637e+03,4.628222422292399642e+03,2.963970822348748698e+03,3.019289858793827079e+03,6.896624005355399277e+03,3.659474718560601104e+03,9.408499717712402344e+00,2.677215635776519775e-01,-3.442134261131286621e-01,1.480000000000000000e+02
3.176560935033405258e+03,3.153289882045505692e+03,4.035705697620956926e+03,4.547009830882240749e+03,2.945008675283253069e+03,3.012838569821257806e+03,6.777432803747134130e+03,3.673687307404871717e+03,9.408499717712402344e+00,2.677215635776519775e-01,-3.442134261131286621e-01,1.490000000000000000e+02
3.201200476923426322e+03,3.194728521205468496e+03,4.061963323589417541e+03,4.442994639921165799e+03,2.960998290686990913e+03,3.049867067894607317e+03,6.584046079330437351e+03,3.732510513563553559e+03,9.408499717712402344e+00,2.677215635776519775e-01,-3.442134261131286621e-01,1.500000000000000000e+02
3.194057396432479436e+03,3.187952565682173372e+03,4.049375592265971136e+03,4.401316278279889957e+03,2.957091563213663903e+03,3.049039627499509152e+03,6.485754734029202154e+03,3.710435233185123252e+03,9.408499717712402344e+00,2.677215635776519775e-01,-3.442134261131286621e-01,1.510000000000000000e+02
3.130006122556985247e+03,3.110976512679639200e+03,3.965022490765011753e+03,4.420651332456420278e+03,2.904468876934343825e+03,2.981329953803144235e+03,6.520460681265507446e+03,3.593175733230365950e+03,9.408499717712402344e+00,2.677215635776519775e-01,-3.442134261131286621e-01,1.520000000000000000e+02
3.062220830985726934e+03,3.038198185489633943e+03,3.875668276734518713e+03,4.415187069363571936e+03,2.841309310327628737e+03,2.909334997445117551e+03,6.541842992474172206e+03,3.497860609470385498e+03,9.408499717712402344e+00,2.677215635776519775e-01,-3.442134261131286621e-01,1.530000000000000000e+02
3.049175219443919559e+03,3.038207151124859593e+03,3.855400168064394165e+03,4.333863913837634755e+03,2.820468257709971112e+03,2.901045512765038438e+03,6.422590528231825374e+03,3.511243384639730266e+03,9.408499717712402344e+00,2.677215635776519775e-01,-3.442134261131286621e-01,1.540000000000000000e+02
3.074451448373739368e+03,3.079769053596405683e+03,3.883255911158691106e+03,4.231157347832786400e+03,2.836180097014280364e+03,2.936229066997254449e+03,6.230993503408531069e+03,3.570172885335776300e+03,9.408499717712402344e+00,2.677215635776519775e-01,-3.442134261131286621e-01,1.550000000000000000e+02
3.068854421886447199e+03,3.075265312745169467e+03,3.872546200247116758e+03,4.190753749695844817e+03,2.832227159909005422e+03,2.933471322891124146e+03,6.135665732504901825e+03,3.549216576035161324e+03,9.484992027282714844e+00,3.824593424797058105e-01,-3.824593424797058105e-01,1.560000000000000000e+02
3.005537761769262033e+03,3.001559780375167065e+03,3.790638455821252137e+03,4.208651594466798997e+03,2.780397649928298961e+03,2.862152797136089248e+03,6.171785865159505192e+03,3.433528473751584897e+03,9.484992027282714844e+00,3.824593424797058105e-01,-3.824593424797058105e-01,1.570000000000000000e+02
2.937684680344229491e+03,2.930968917510396750e+03,3.703437289511471135e+03,4.198951241481167926e+03,2.719696052012465771e+03,2.785708531832288827e+03,6.193255767322268184e+03,3.338368195325524539e+03,9.484992027282714844e+00,3.824593424797058105e-01,-3.824593424797058105e-01,1.580000000000000000e+02
2.925190019787834899e+03,2.930265131279104935e+03,3.683994980733601551e+03,4.113694298450494898e+03,2.701836696577554903e+03,2.774637217815017721e+03,6.075014201104968379e+03,3.349646261901420075e+03,9.484992027282714844e+00,3.824593424797058105e-01,-3.824593424797058105e-01,1.590000000000000000e+02
2.950851390011011972e+03,2.968372457838147966e+03,3.711892962090399124e+03,4.009507344939121595e+03,2.719236980175463941e+03,2.808712833027648230e+03,5.884913998906817142e+03,3.405984104551267137e+03,9.484992027282714844e+00,3.824593424797058105e-01,-3.824593424797058105e-01,1.600000000000000000e+02
2.943710931601142875e+03,2.959610270864558515e+03,3.701647987009293502e+03,3.969270517909422779e+03,2.715683644147943596e+03,2.805146185898206568e+03,5.789637696109744866e+03,3.384110465805206331e+03,9.484992027282714844e+00,3.824593424797058105e-01,-3.824593424797058105e-01,1.610000000000000000e+02
2.878588160044972938e+03,2.882031752866220359e+03,3.620737039063764769e+03,3.987978890824374503e+03,2.664611855510285750e+03,2.733952813083886213e+03,5.825149499143139110e+03,3.269253640990898930e+03,9.484992027282714844e+00,3.824593424797058105e-01,-3.824593424797058105e-01,1.620000000000000000e+02
2.812079947098698540e+03,2.808110156801115863e+03,3.534206745918691468e+03,3.979897635764606548e+03,2.605771130060451469e+03,2.659059752444919468e+03,5.847173954939900796e+03,3.175130504966788976e+03,9.484992027282714844e+00,3.824593424797058105e-01,-3.824593424797058105e-01,1.630000000000000000e+02
2.803522831767221760e+03,2.805436852891862600e+03,3.514142895134466016e+03,3.896453818681734901e+03,2.589503745352439182e+03,2.648802993941147179e+03,5.729947709040130576e+03,3.186091054583226651e+03,9.484992027282714844e+00,3.824593424797058105e-01,-3.824593424797058105e-01,1.640000000000000000e+02
2.832012384818388455e+03,2.843241726972007200e+03,3.539789068112133918e+03,3.792995796036351749e+03,2.606784240158770444e+03,2.681944232657642715e+03,5.540052516959421155e+03,3.240171299609421112e+03,9.484992027282714844e+00,3.824593424797058105e-01,-3.824593424797058105e-01,1.650000000000000000e+02
2.825805465780475970e+03,2.834137932136777181e+03,3.527111288425963721e+03,3.752793963534512386e+03,2.602278461242216508e+03,2.678467886266451387e+03,5.444851990440690315e+03,3.215461950816174522e+03,9.484992027282714844e+00,3.824593424797058105e-01,-3.824593424797058105e-01,1.660000000000000000e+02
2.761842528522607608e+03,2.755234262282681811e+03,3.446117534913601958e+03,3.772075585365048028e+03,2.551363020961192433e+03,2.610186391198629281e+03,5.480757834366088900e+03,3.100219933298756587e+03,9.484992027282714844e+00,3.824593424797058105e-01,-3.824593424797058105e-01,1.670000000000000000e+02
2.696310456295384029e+03,2.680500547225246919e+03,3.362066369165207107e+03,3.764722381967473666e+03,2.493785069825607479e+03,2.538618526923487480e+03,5.502812251531432594e+03,3.009831743847588768e+03,9.484992027282714844e+00,3.824593424797058105e-01,-3.824593424797058105e-01,1.680000000000000000e+02
2.685891394341413616e+03,2.677769067853003435e+03,3.344184925095158633e+03,3.681429818575217723e+03,2.478261303532557122e+03,2.529797325754520898e+03,5.386352661539455767e+03,3.026524796590643746e+03,9.484992027282714844e+00,3.824593424797058105e-01,-3.824593424797058105e-01,1.690000000000000000e+02
2.710103849610709403e+03,2.713892396690680016e+03,3.369892418338831703e+03,3.578723439538246566e+03,2.495352756323471112e+03,2.563492138884513224e+03,5.200139644679697085e+03,3.084830261970187166e+03,9.484992027282714844e+00,3.824593424797058105e-01,-3.824593424797058105e-01,1.700000000000000000e+02
2.700173029712286734e+03,2.701154702433070725e+03,3.356341675982262586e+03,3.541209861678547441e+03,2.490511572000836622e+03,2.561007845042862755e+03,5.110428294574812753e+03,3.062155607587577379e+03,9.484992027282714844e+00,3.824593424797058105e-01,-3.824593424797058105e-01,1.710000000000000000e+02
2.633455203404023450e+03,2.619930281138056216e+03,3.274315292309510369e+03,3.564471517066592241e+03,2.438689857787788696e+03,2.493678263396551301e+03,5.150295259190427714e+03,2.948325798706784099e+03,9.484992027282714844e+00,3.824593424797058105e-01,-3.824593424797058105e-01,1.720000000000000000e+02
2.564806406252299894e+03,2.546280309160912111e+03,3.187878749148758743e+03,3.561400217369439360e+03,2.378346282946291467e+03,2.422653699846626751e+03,5.174483594078484202e+03,2.858675776819280145e+03,9.484992027282714844e+00,3.824593424797058105e-01,-3.824593424797058105e-01,1.730000000000000000e+02
2.552137231882227752e+03,2.546977293975986868e+03,3.166490974472575090e+03,3.482617791970246344e+03,2.358567408187204364e+03,2.414270241310784968e+03,5.060578670959572264e+03,2.873840123054462310e+03,9.484992027282714844e+00,3.824593424797058105e-01,-3.824593424797058105e-01,1.740000000000000000e+02
2.576993252271982783e+03,2.587715795913644797e+03,3.190154184511432049e+03,3.383625957292004841e+03,2.371706284453657645e+03,2.447858692599105780e+03,4.877434779188653920e+03,2.929008263315412478e+03,9.484992027282714844e+00,3.824593424797058105e-01,-3.824593424797058105e-01,1.750000000000000000e+02
2.569534936764124268e+03,2.580200091834335581e+03,3.177199300648214830e+03,3.347015067356537656e+03,2.364194816839900341e+03,2.444186842252432598e+03,4.789647834728185444e+03,2.904466538150901215e+03,9.484992027282714844e+00,3.824593424797058105e-01,-3.824593424797058105e-01,1.760000000000000000e+02
2.505357244125613761e+03,2.502784999859996333e+03,3.097185457545798727e+03,3.368377860897345272e+03,2.311285313521176704e+03,2.375175389427744904e+03,4.830614088679522865e+03,2.790827806799706195e+03,9.484992027282714844e+00,3.824593424797058105e-01,-3.824593424797058105e-01,1.770000000000000000e+02
2.439838438986850633e+03,2.429150178772404161e+03,3.013611746869771196e+03,3.362801419853767584e+03,2.252266175780167487e+03,2.302478305121361700e+03,4.856775096103867327e+03,2.701415377806159086e+03,9.484992027282714844e+00,3.824593424797058105e-01,-3.824593424797058105e-01,1.780000000000000000e+02
2.430578941831198335e+03,2.426139459692365563e+03,2.996212428823007485e+03,3.282091106519361347e+03,2.236329458700109171e+03,2.292034749148209357e+03,4.746009995161197367e+03,2.716087735055489247e+03,9.484992027282714844e+00,3.824593424797058105e-01,-3.824593424797058105e-01,1.790000000000000000e+02
2.456481454594921161e+03,2.462041728481550308e+03,3.023590353769264311e+03,3.181540764770313217e+03,2.253924816073025795e+03,2.323359721013006947e+03,4.566484688438373269e+03,2.771496912003565740e+03,9.484992027282714844e+00,3.824593424797058105e-01,-3.824593424797058105e-01,1.800000000000000000e+02
2.447514957760085508e+03,2.451793859121367404e+03,3.012181875037780173e+03,3.144426689119928596e+03,2.249533493843237466e+03,2.318326653578334572e+03,4.482189584785408442e+03,2.748145327560548594e+03,9.484992027282714844e+00,3.824593424797058105e-01,-3.824593424797058105e-01,1.810000000000000000e+02
2.382537766571043448e+03,2.375436696588359155e+03,2.932209771470909800e+03,3.167337880825482443e+03,2.198254089943388863e+03,2.249152621948947854e+03,4.525243394600120155e+03,2.634973342307815074e+03,9.484992027282714844e+00,3.824593424797058105e-01,-3.824593424797058105e-01,1.820000000000000000e+02
2.317837977003222477e+03,2.305056202600254892e+03,2.849061472120599319e+03,3.164531155377510913e+03,2.139682781407593666e+03,2.176782615897609503e+03,4.551098825600356577e+03,2.545103114019962959e+03,9.484992027282714844e+00,3.824593424797058105e-01,-3.824593424797058105e-01,1.830000000000000000e+02
2.308584651260914598e+03,2.304429158770237336e+03,2.832532068437670205e+03,3.086451550355903237e+03,2.122960342381806186e+03,2.166976644566741015e+03,4.439218540219060742e+03,2.560076727417817892e+03,9.484992027282714844e+00,3.824593424797058105e-01,-3.824593424797058105e-01,1.840000000000000000e+02
2.333581135191183876e+03,2.341627975596232773e+03,2.860538947072307110e+03,2.988763066156231162e+03,2.139785584303532232e+03,2.199683475624715811e+03,4.260316473272201620e+03,2.616952489845366017e+03,9.484992027282714844e+00,3.824593424797058105e-01,-3.824593424797058105e-01,1.850000000000000000e+02
2.325454331324923714e+03,2.333685553136846920e+03,2.850316706912139580e+03,2.955372082584054624e+03,2.136773368927979845e+03,2.196638320605663012e+03,4.178394925581953430e+03,2.595151964963798946e+03,9.484992027282714844e+00,3.824593424797058105e-01,-3.824593424797058105e-01,1.860000000000000000e+02
2.263181802306245572e+03,2.260165473115259374e+03,2.772855063259510189e+03,2.981761611272607752e+03,2.088813580065492715e+03,2.129443093627975941e+03,4.224156407817931722e+03,2.483711543558685662e+03,9.484992027282714844e+00,4.589512646198272705e-01,-3.824593424797058105e-01,1.870000000000000000e+02
2.200520116643227084e+03,2.190561426610821400e+03,2.692208952955355926e+03,2.980952573832865255e+03,2.032864199394248772e+03,2.058895510578282938e+03,4.253369496174971573e+03,2.396401227942238620e+03,9.484992027282714844e+00,4.589512646198272705e-01,-3.824593424797058105e-01,1.880000000000000000e+02
2.191801764311384431e+03,2.188997048435230226e+03,2.676343089801320730e+03,2.903683572927437126e+03,2.016575490393905966e+03,2.050933371417016133e+03,4.146278763051000169e+03,2.413355240390833387e+03,9.484992027282714844e+00,4.589512646198272705e-01,-3.824593424797058105e-01,1.890000000000000000e+02
2.216565470655407807e+03,2.225939829564788852e+03,2.703235017345685264e+03,2.805880934068959050e+03,2.032128432188674196e+03,2.085176685583330254e+03,3.972119604408630948e+03,2.469844538510545135e+03,9.484992027282714844e+00,4.589512646198272705e-01,-3.824593424797058105e-01,1.900000000000000000e+02
2.207212891585702891e+03,2.217887267218260604e+03,2.691546419801233242e+03,2.770904909718668023e+03,2.026515325286971802e+03,2.082762459019736980e+03,3.892908921337091670e+03,2.446775662031235697e+03,9.484992027282714844e+00,4.589512646198272705e-01,-3.824593424797058105e-01,1.910000000000000000e+02
2.142728863670065493e+03,2.142373765743800504e+03,2.613351604492282149e+03,2.795009233223981937e+03,1.975422370716741625e+03,2.015524419892061360e+03,3.939700812936313923e+03,2.336368928628586673e+03,9.484992027282714844e+00,4.589512646198272705e-01,-3.824593424797058105e-01,1.920000000000000000e+02
2.078508840326066093e+03,2.069818210853608889e+03,2.533122429438251402e+03,2.793605508677220769e+03,1.918398075077878275e+03,1.945337530023763520e+03,3.969753768596361624e+03,2.252704740527001832e+03,9.484992027282714844e+00,4.589512646198272705e-01,-3.824593424797058105e-01,1.930000000000000000e+02
2.070119680282366062e+03,2.066098527708625625e+03,2.518780717145380095e+03,2.718387798014794498e+03,1.904595460729590741e+03,1.938357564510727116e+03,3.863834859398426488e+03,2.273421366477170977e+03,9.484992027282714844e+00,4.589512646198272705e-01,-3.824593424797058105e-01,1.940000000000000000e+02
2.096770641306328798e+03,2.100888642914183947e+03,2.547515567393389119e+03,2.623614599157751400e+03,1.923774680496662768e+03,1.972669141419874904e+03,3.691279297387407496e+03,2.332125928381210542e+03,9.484992027282714844e+00,4.589512646198272705e-01,-3.824593424797058105e-01,1.950000000000000000e+02
2.090403756381097082e+03,2.090756487401183222e+03,2.536896644902414209e+03,2.590632916318113985e+03,1.919796112284093851e+03,1.968151584098253807e+03,3.614147439641441451e+03,2.309614690699062976e+03,9.484992027282714844e+00,4.589512646198272705e-01,-3.824593424797058105e-01,1.960000000000000000e+02
2.029651238183738769e+03,2.016462017568246665e+03,2.458955308784017234e+03,2.614895990540945604e+03,1.868328696703421429e+03,1.897846926684828759e+03,3.662596553308562761e+03,2.197922292367103182e+03,9.484992027282714844e+00,4.589512646198272705e-01,-3.824593424797058105e-01,1.970000000000000000e+02
1.968817212653892511e+03,1.949195307731427874e+03,2.379128447690755365e+03,2.612077536601706015e+03,1.810033208332441063e+03,1.825781359975638225e+03,3.693204623239265857e+03,2.111355509822882595e+03,9.484992027282714844e+00,4.589512646198272705e-01,-3.824593424797058105e-01,1.980000000000000000e+02
1.962232535083574930e+03,1.950142546898230194e+03,2.365508988047804451e+03,2.535477614268113030e+03,1.793860015729313545e+03,1.818313324848195862e+03,3.588151165589320044e+03,2.129298659218537523e+03,9.484992027282714844e+00,4.589512646198272705e-01,-3.824593424797058105e-01,1.990000000000000000e+02
1.988451695631218172e+03,1.985305856208444311e+03,2.394479437181214962e+03,2.441647195457716407e+03,1.810295830183698399e+03,1.852495710653734932e+03,3.418449397267490895e+03,2.187049745902302675e+03,9.484992027282714844e+00,4.589512646198272705e-01,-3.824593424797058105e-01,2.000000000000000000e+02
1.979603460495402487e+03,1.973276427082256760e+03,2.384079362366127043e+03,2.412202831640737259e+03,1.805828189262063461e+03,1.848538524134912223e+03,3.345223515552858771e+03,2.165259215865945407e+03,9.484992027282714844e+00,4.589512646198272705e-01,-3.824593424797058105e-01,2.010000000000000000e+02
1.916273823689590245e+03,1.897991074341341573e+03,2.308229555333081407e+03,2.440255111335013225e+03,1.756870620894053900e+03,1.780375985280322311e+03,3.396669158886465993e+03,2.054989010921281533e+03,9.484992027282714844e+00,4.589512646198272705e-01,-3.824593424797058105e-01,2.020000000000000000e+02
1.855390193996602193e+03,1.830888291211373144e+03,2.232354015779118981e+03,2.439717858489058017e+03,1.701581903349885579e+03,1.710766275599650726e+03,3.429623982113783313e+03,1.970001506923477336e+03,9.484992027282714844e+00,4.589512646198272705e-01,-3.824593424797058105e-01,2.030000000000000000e+02
1.850779197287795796e+03,1.833034905187235836e+03,2.221845062591905389e+03,2.364310725548054052e+03,1.687178697204586115e+03,1.703505707590376915e+03,3.327929172007672605e+03,1.988979528256098547e+03,9.484992027282714844e+00,4.589512646198272705e-01,-3.824593424797058105e-01,2.040000000000000000e+02
1.877729892825717343e+03,1.871247493719980866e+03,2.251643831078565199e+03,2.271115649116676650e+03,1.705105547634730556e+03,1.735415923287176611e+03,3.162862350220809731e+03,2.046590341071670309e+03,9.484992027282714844e+00,4.589512646198272705e-01,-3.824593424797058105e-01,2.050000000000000000e+02
1.867912895363088410e+03,1.862821497420815376e+03,2.241249911285839062e+03,2.241739375174521683e+03,1.702468581919184544e+03,1.729508200998746361e+03,3.094393566932496014e+03,2.024613825780473690e+03,9.484992027282714844e+00,4.589512646198272705e-01,-3.824593424797058105e-01,2.060000000000000000e+02
1.804844351319643465e+03,1.788760335276590013e+03,2.165311563095596284e+03,2.270520186240190014e+03,1.654501762825972037e+03,1.662504337343958923e+03,3.149729822983275426e+03,1.916291595338052957e+03,9.484992027282714844e+00,4.589512646198272705e-01,-3.824593424797058105e-01,2.070000000000000000e+02
1.745742053016509544e+03,1.720513862556100548e+03,2.087760286123240348e+03,2.273070476451619925e+03,1.598831709785165003e+03,1.597477125587954106e+03,3.185321113071918262e+03,1.835414304331407266e+03,9.446745872497558594e+00,3.442134261131286621e-01,-3.059675097465515137e-01,2.080000000000000000e+02
1.741147092669326412e+03,1.721643729781206503e+03,2.073968920732752849e+03,2.202460796001390463e+03,1.583800696370087735e+03,1.596484567473578409e+03,3.085150882275430831e+03,1.858205950801295330e+03,9.446745872497558594e+00,3.442134261131286621e-01,-3.059675097465515137e-01,2.090000000000000000e+02
1.765477717624740762e+03,1.758874142987288451e+03,2.101654289980008798e+03,2.113376226331966336e+03,1.601677868229226078e+03,1.634235212859176499e+03,2.921056135656147489e+03,1.917876678964179291e+03,9.446745872497558594e+00,3.442134261131286621e-01,-3.059675097465515137e-01,2.100000000000000000e+02
1.753007058976234930e+03,1.747358713418795560e+03,2.092025943100938548e+03,2.086195715959545851e+03,1.599243281694060897e+03,1.632155113224525394e+03,2.853141358530781417e+03,1.897152395984107216e+03,9.446745872497558594e+00,3.442134261131286621e-01,-3.059675097465515137e-01,2.110000000000000000e+02
1.688151330869848152e+03,1.669526042534277167e+03,2.018625033623693525e+03,2.115334531818134565e+03,1.551490872632530227e+03,1.565958962365985826e+03,2.908200522990521222e+03,1.789912655218624423e+03,9.446745872497558594e+00,3.442134261131286621e-01,-3.059675097465515137e-01,2.120000000000000000e+02
1.626697195028943952e+03,1.601078195868273951e+03,1.944184972672866934e+03,2.116558903154676500e+03,1.496421605264704340e+03,1.498740569519990913e+03,2.943189249188192207e+03,1.709159456198306998e+03,9.446745872497558594e+00,3.442134261131286621e-01,-3.059675097465515137e-01,2.130000000000000000e+02
1.619867066994491779e+03,1.605694659008206827e+03,1.933866332209145639e+03,2.044072998797196306e+03,1.482588458163519135e+03,1.494487280638118591e+03,2.843752898589741108e+03,1.731649894308255170e+03,9.446745872497558594e+00,3.442134261131286621e-01,-3.059675097465515137e-01,2.140000000000000000e+02
1.644924821435962258e+03,1.645659050746060302e+03,1.964540724823194978e+03,1.954784573672878651e+03,1.501823697388662595e+03,1.530714275715592294e+03,2.682469537332768596e+03,1.792990302859308485e+03,9.446745872497558594e+00,3.442134261131286621e-01,-3.059675097465515137e-01,2.150000000000000000e+02
1.636783888425386976e+03,1.634499912337630576e+03,1.956530734514696178e+03,1.929607736377660785e+03,1.500166734146020872e+03,1.529534751588761537e+03,2.618396919852310475e+03,1.776142853822236020e+03,9.446745872497558594e+00,3.442134261131286621e-01,-3.059675097465515137e-01,2.160000000000000000e+02
1.577294414636866804e+03,1.557798335767964090e+03,1.884187284699959491e+03,1.961233263747480578e+03,1.452173609328019211e+03,1.464828794738329407e+03,2.677133298639966597e+03,1.671792010530511561e+03,9.446745872497558594e+00,3.442134261131286621e-01,-3.059675097465515137e-01,2.170000000000000000e+02
1.519726266270911765e+03,1.492912061467844978e+03,1.811445332716434905e+03,1.964973445529131823e+03,1.395992862834384368e+03,1.398730195150397094e+03,2.715277608750865966e+03,1.591118416695135011e+03,9.446745872497558594e+00,3.442134261131286621e-01,-3.059675097465515137e-01,2.180000000000000000e+02
1.515097945476913310e+03,1.501311040057588798e+03,1.803260170127159199e+03,1.896660992755495499e+03,1.380597438141634484e+03,1.396077400323248185e+03,2.618348139538880332e+03,1.612954504459015880e+03,9.446745872497558594e+00,3.442134261131286621e-01,-3.059675097465515137e-01,2.190000000000000000e+02
1.541919682461253160e+03,1.544090599400989277e+03,1.836161961615905284e+03,1.812805362909405176e+03,1.398246353414866462e+03,1.433549656558707966e+03,2.459015102854628822e+03,1.674576246774246783e+03,9.446745872497558594e+00,3.442134261131286621e-01,-3.059675097465515137e-01,2.200000000000000000e+02
1.535648364052142142e+03,1.536174924226807207e+03,1.830920784503567802e+03,1.790758287419245335e+03,1.395811289435655453e+03,1.430584100178022481e+03,2.396986915235459037e+03,1.657548697531952030e+03,9.446745872497558594e+00,3.442134261131286621e-01,-3.059675097465515137e-01,2.210000000000000000e+02
1.477477970243158552e+03,1.462852300807187021e+03,1.761545887388660276e+03,1.821394028158582159e+03,1.349028062929622365e+03,1.361575757182290772e+03,2.458393975036829033e+03,1.551840186342827110e+03,9.446745872497558594e+00,3.442134261131286621e-01,-3.059675097465515137e-01,2.220000000000000000e+02
1.420862452481621631e+03,1.399018757980840974e+03,1.690805167302555674e+03,1.822541864489473483e+03,1.296124555476769729e+03,1.292526643825704014e+03,2.499890076002105616e+03,1.470257337841392655e+03,9.446745872497558594e+00,3.442134261131286621e-01,-3.059675097465515137e-01,2.230000000000000000e+02
1.418688716833327589e+03,1.406294122849189762e+03,1.683719367437699248e+03,1.752885906031118793e+03,1.284359204415846534e+03,1.289121704396200585e+03,2.407108602389191674e+03,1.491499906772733539e+03,9.446745872497558594e+00,3.442134261131286621e-01,-3.059675097465515137e-01,2.240000000000000000e+02
1.449983826929060797e+03,1.449144946204299913e+03,1.717530281045553465e+03,1.669010260585166861e+03,1.304397884691914442e+03,1.325406972157410564e+03,2.252347034077798526e+03,1.550589282118583014e+03,9.446745872497558594e+00,3.442134261131286621e-01,-3.059675097465515137e-01,2.250000000000000000e+02
1.447448208629867167e+03,1.444133478858912440e+03,1.712334616173910717e+03,1.648050536759838678e+03,1.303535059582703298e+03,1.321735185987899513e+03,2.193665080502420551e+03,1.530465573502235657e+03,9.446745872497558594e+00,3.442134261131286621e-01,-3.059675097465515137e-01,2.260000000000000000e+02
1.389795605575922309e+03,1.374479645004985969e+03,1.641801527034396713e+03,1.682099007821180749e+03,1.258720913290216686e+03,1.256771295465467801e+03,2.256042029334389099e+03,1.426222380807307445e+03,9.446745872497558594e+00,3.442134261131286621e-01,-3.059675097465515137e-01,2.270000000000000000e+02
1.331501981174840694e+03,1.312478553433916431e+03,1.570955298495534180e+03,1.688785194604278331e+03,1.207946550412882061e+03,1.195552206768969882e+03,2.297518690797471208e+03,1.351600532420287436e+03,9.446745872497558594e+00,3.442134261131286621e-01,-3.059675097465515137e-01,2.280000000000000000e+02
1.327406883348257452e+03,1.319063744997268259e+03,1.566532365581252634e+03,1.624081776687540696e+03,1.197083127139673252e+03,1.197592116995921060e+03,2.206038706708774953e+03,1.379856318056599321e+03,9.446745872497558594e+00,3.442134261131286621e-01,-3.059675097465515137e-01,2.290000000000000000e+02
1.356687930855761351e+03,1.359556502415481191e+03,1.603538698110726727e+03,1.543054700946527191e+03,1.216113496366770960e+03,1.235488872192382587e+03,2.054447129111733375e+03,1.442095371552035431e+03,9.446745872497558594e+00,3.442134261131286621e-01,-3.059675097465515137e-01,2.300000000000000000e+02
1.352562202105215874e+03,1.351935023622584595e+03,1.599351107163763118e+03,1.524151079345785547e+03,1.212920424737806570e+03,1.234229814633999013e+03,2.000011781149758463e+03,1.423458401865912037e+03,9.446745872497558594e+00,3.442134261131286621e-01,-3.059675097465515137e-01,2.310000000000000000e+02
1.295716907474587060e+03,1.280320656908601450e+03,1.528659396838656903e+03,1.560398402274672662e+03,1.165777039221484756e+03,1.173977089379686731e+03,2.067080661211593906e+03,1.322211350939091972e+03,9.446745872497558594e+00,3.442134261131286621e-01,-3.059675097465515137e-01,2.320000000000000000e+02
1.240191262320817259e+03,1.216674099687931630e+03,1.458054264363346192e+03,1.568653007073264234e+03,1.114246505899156546e+03,1.116279595787235849e+03,2.113006972356117330e+03,1.251719013985958554e+03,9.523238182067871094e+00,3.059675097465515137e-01,-3.059675097465515137e-01,2.330000000000000000e+02
1.236676027692672506e+03,1.221574179935540087e+03,1.452443203274236112e+03,1.504914036868632138e+03,1.104968063325122785e+03,1.119816498974146725e+03,2.024914811702918996e+03,1.283856444973880571e+03,9.523238182067871094e+00,3.059675097465515137e-01,-3.059675097465515137e-01,2.340000000000000000e+02
1.262005570523963797e+03,1.261303747218023091e+03,1.485517395794938238e+03,1.425149171229077638e+03,1.126898502805312546e+03,1.160116559698083620e+03,1.875612066798056730e+03,1.350031394014384205e+03,9.523238182067871094e+00,3.059675097465515137e-01,-3.059675097465515137e-01,2.350000000000000000e+02
1.252480124141728083e+03,1.254647852146082187e+03,1.478219288664971828e+03,1.407033452330270848e+03,1.126266536735354293e+03,1.162264322082910439e+03,1.822747751920150222e+03,1.335456459245953283e+03,9.523238182067871094e+00,3.059675097465515137e-01,-3.059675097465515137e-01,2.360000000000000000e+02
1.192966434782590113e+03,1.184700572874719910e+03,1.409139268860391894e+03,1.442403170308932658e+03,1.081018403895371193e+03,1.103233174894578497e+03,1.890659430279283697e+03,1.236658093924544119e+03,9.523238182067871094e+00,3.059675097465515137e-01,-3.059675097465515137e-01,2.370000000000000000e+02
1.138052815983646269e+03,1.122256050967913325e+03,1.343260704394184359e+03,1.449745280911187820e+03,1.031179195188872200e+03,1.043833922961259304e+03,1.937313464792187915e+03,1.165654582104770725e+03,9.523238182067871094e+00,3.059675097465515137e-01,-3.059675097465515137e-01,2.380000000000000000e+02
1.137118623002429558e+03,1.128416656669386612e+03,1.341467842650039529e+03,1.387547949705332030e+03,1.023097491645145055e+03,1.044897060223644075e+03,1.851537863886680498e+03,1.195511392089263609e+03,9.523238182067871094e+00,3.059675097465515137e-01,-3.059675097465515137e-01,2.390000000000000000e+02
1.166412511641810852e+03,1.169848416267316679e+03,1.376683815937209602e+03,1.311125511226564413e+03,1.045608435594737330e+03,1.082999730171433839e+03,1.706607537895051792e+03,1.260124330864308831e+03,9.523238182067871094e+00,3.059675097465515137e-01,-3.059675097465515137e-01,2.400000000000000000e+02
1.160635499498544959e+03,1.164270117970584579e+03,1.370979955457452888e+03,1.296048470770418135e+03,1.046228939230888500e+03,1.083269648137382319e+03,1.658245085323520470e+03,1.246000766423849200e+03,9.523238182067871094e+00,3.059675097465515137e-01,-3.059675097465515137e-01,2.410000000000000000e+02
1.101743434873520528e+03,1.094824434474893224e+03,1.302497583980722993e+03,1.334125197046126232e+03,1.003706197841382163e+03,1.023737563969308212e+03,1.729125953051389843e+03,1.149065832317170134e+03,9.523238182067871094e+00,3.059675097465515137e-01,-3.059675097465515137e-01,2.420000000000000000e+02
1.044799320639624057e+03,1.034287356029460170e+03,1.236064724258234492e+03,1.344103159420653355e+03,9.564783123016195532e+02,9.654880980679599816e+02,1.777731269155342488e+03,1.079788577840095058e+03,9.523238182067871094e+00,3.059675097465515137e-01,-3.059675097465515137e-01,2.430000000000000000e+02
1.044290374105350566e+03,1.043833995295934983e+03,1.234842044581479968e+03,1.282713644829278564e+03,9.490415100318632540e+02,9.671126083333920178e+02,1.693736012910566387e+03,1.109794017551522302e+03,9.523238182067871094e+00,3.059675097465515137e-01,-3.059675097465515137e-01,2.440000000000000000e+02
1.079511976969861280e+03,1.087475133388204085e+03,1.273214600517530926e+03,1.204636163475734975e+03,9.707355386785229712e+02,1.003235887186410764e+03,1.550029275684757522e+03,1.172533416558506360e+03,9.523238182067871094e+00,3.059675097465515137e-01,-3.059675097465515137e-01,2.450000000000000000e+02
1.081765819631936210e+03,1.082492852345658321e+03,1.271327727238699481e+03,1.188032289305138875e+03,9.706488919729663394e+02,1.000035973300156911e+03,1.501947178104050181e+03,1.155734837396255898e+03,9.523238182067871094e+00,3.059675097465515137e-01,-3.059675097465515137e-01,2.460000000000000000e+02
1.028308575031697728e+03,1.014831888404225538e+03,1.205151379263901617e+03,1.226416294373317214e+03,9.278692980617806825e+02,9.379498089231665290e+02,1.572705022754569654e+03,1.057437185227327063e+03,9.523238182067871094e+00,3.059675097465515137e-01,-3.059675097465515137e-01,2.470000000000000000e+02
9.735894292391021736e+02,9.576425615583848412e+02,1.139898051614298311e+03,1.236960130832259892e+03,8.804859818942823040e+02,8.793308022907112900e+02,1.621500526634212292e+03,9.889653074912102966e+02,9.523238182067871094e+00,3.059675097465515137e-01,-3.059675097465515137e-01,2.480000000000000000e+02
9.731744213023330303e+02,9.688520297883242165e+02,1.139698647488570714e+03,1.175647066752620958e+03,8.731689889303816017e+02,8.830609223141218536e+02,1.538765968010659890e+03,1.020834798984963527e+03,9.523238182067871094e+00,3.059675097465515137e-01,-3.059675097465515137e-01,2.490000000000000000e+02
1.006307518771129253e+03,1.011499391432887933e+03,1.178835347077414553e+03,1.099109012345842530e+03,8.953689258459780831e+02,9.236804471877194374e+02,1.398450291748463314e+03,1.085262859223837950e+03,9.523238182067871094e+00,3.059675097465515137e-01,-3.059675097465515137e-01,2.500000000000000000e+02
1.005831158764156498e+03,1.005574962335675082e+03,1.177728000843538211e+03,1.085756393860468052e+03,8.956948047263585977e+02,9.260318717878053576e+02,1.355956638379891956e+03,1.069840498192848827e+03,9.523238182067871094e+00,3.059675097465515137e-01,-3.059675097465515137e-01,2.510000000000000000e+02
9.528166767411094042e+02,9.384169577200773347e+02,1.113250119757080938e+03,1.126364517553600308e+03,8.530025599684331610e+02,8.679414915392326293e+02,1.432630873982925550e+03,9.725202615638063435e+02,9.523238182067871094e+00,3.059675097465515137e-01,-3.059675097465515137e-01,2.520000000000000000e+02
9.024271503733289137e+02,8.825793301422982040e+02,1.050410986110918202e+03,1.137472757941577584e+03,8.058404685296436583e+02,8.102763360392300456e+02,1.485739744987004087e+03,9.040970946976867708e+02,9.523238182067871094e+00,3.059675097465515137e-01,-3.059675097465515137e-01,2.530000000000000000e+02
9.059135065054524603e+02,8.967053743366423078e+02,1.052410150755239556e+03,1.077829949437009418e+03,7.992793987420809572e+02,8.131841916176390441e+02,1.405650400529933904e+03,9.351781411692390975e+02,9.523238182067871094e+00,3.059675097465515137e-01,-3.059675097465515137e-01,2.540000000000000000e+02
9.390527151585019965e+02,9.439474037968939228e+02,1.093559489764100363e+03,1.004752184221615607e+03,8.225508479047675792e+02,8.532018891296975198e+02,1.266890201002972390e+03,9.986984782970521337e+02,9.523238182067871094e+00,3.059675097465515137e-01,-3.059675097465515137e-01,2.550000000000000000e+02
9.359672867283516098e+02,9.407924118164892207e+02,1.094423917774842266e+03,9.936361097894805425e+02,8.238652852929344590e+02,8.554825435786015078e+02,1.224486118792794514e+03,9.826902054098627559e+02,9.523238182067871094e+00,3.059675097465515137e-01,-3.059675097465515137e-01,2.560000000000000000e+02
8.804098650917439954e+02,8.718324812880273385e+02,1.030883234790668212e+03,1.033966067145081070e+03,7.823559922756921878e+02,7.978902349624404451e+02,1.299889491579178866e+03,8.857894312277812787e+02,9.523238182067871094e+00,3.059675097465515137e-01,-3.059675097465515137e-01,2.570000000000000000e+02
8.284506024713346051e+02,8.117001371678225041e+02,9.674145998804388000e+02,1.044866824479576280e+03,7.375469349621289439e+02,7.430925887589928607e+02,1.352611914340423027e+03,8.200100240214387668e+02,9.523238182067871094e+00,3.059675097465515137e-01,-3.059675097465515137e-01,2.580000000000000000e+02
8.315004491257404879e+02,8.217134397560948855e+02,9.682706002850263758e+02,9.870261304906416626e+02,7.348030216780571209e+02,7.522626407116331393e+02,1.275383495662495989e+03,8.558130922139380345e+02,9.523238182067871094e+00,3.059675097465515137e-01,-3.059675097465515137e-01,2.590000000000000000e+02
8.653118118430247705e+02,8.652592122232317706e+02,1.008556199035387181e+03,9.168670577713728562e+02,7.619782236404953437e+02,7.988827787324717065e+02,1.142087163961345141e+03,9.239188129770263913e+02,9.446745872497558594e+00,3.824593424797058105e-01,-2.677215635776519775e-01,2.600000000000000000e+02
8.629784120221065677e+02,8.605083790084772772e+02,1.008822340051810897e+03,9.090617872169259499e+02,7.656774387346631556e+02,8.038216168926328464e+02,1.104712989866398857e+03,9.107080431326139660e+02,9.446745872497558594e+00,3.824593424797058105e-01,-2.677215635776519775e-01,2.610000000000000000e+02
8.075476367274859513e+02,7.951958627732892637e+02,9.460545369696183116e+02,9.532990947287307790e+02,7.249659785171043040e+02,7.445976080212622037e+02,1.182722178706217164e+03,8.151106957354641054e+02,9.446745872497558594e+00,3.824593424797058105e-01,-2.677215635776519775e-01,2.620000000000000000e+02
7.561495266264355450e+02,7.424582077517297876e+02,8.859199007950646774e+02,9.673567500991994166e+02,6.799320384545662819e+02,6.865340846440394671e+02,1.236227538851275312e+03,7.494035483585657857e+02,9.446745872497558594e+00,3.824593424797058105e-01,-2.677215635776519775e-01,2.630000000000000000e+02
7.611005980279005598e+02,7.581805479761660536e+02,8.904735194145741843e+02,9.100504312731991376e+02,6.758360643285068363e+02,6.921498297449415986e+02,1.159549492066218590e+03,7.837920319809700231e+02,9.446745872497558594e+00,3.824593424797058105e-01,-2.677215635776519775e-01,2.640000000000000000e+02
7.973237656069941295e+02,8.036866821772309777e+02,9.309307939739101130e+02,8.388013420471779682e+02,7.010542039928150189e+02,7.353220990111985884e+02,1.027166056215415665e+03,8.503848943680541197e+02,9.446745872497558594e+00,3.824593424797058105e-01,-2.677215635776519775e-01,2.650000000000000000e+02
7.974440561451538088e+02,7.987704190748700057e+02,9.282008147645883582e+02,8.307723452464124421e+02,7.042583159397745476e+02,7.389857321143117588e+02,9.905177232680689485e+02,8.380889307000179542e+02,9.446745872497558594e+00,3.824593424797058105e-01,-2.677215635776519775e-01,2.660000000000000000e+02
7.452628524661031406e+02,7.313434039065632533e+02,8.638868530166437267e+02,8.757606881593965227e+02,6.657311266312663065e+02,6.822266908465971937e+02,1.068601107022062934e+03,7.460761082543867815e+02,9.446745872497558594e+00,3.824593424797058105e-01,-2.677215635776519775e-01,2.670000000000000000e+02
6.971491652391596290e+02,6.745483462471274834e+02,8.060214994206253323e+02,8.902903314222221525e+02,6.242349348131974693e+02,6.279378177713952027e+02,1.122073885233758119e+03,6.842490194902384246e+02,9.446745872497558594e+00,3.824593424797058105e-01,-2.677215635776519775e-01,2.680000000000000000e+02
7.030479255976279092e+02,6.874415543649138272e+02,8.145073688493575901e+02,8.336734580805059522e+02,6.233160349410118215e+02,6.347351836755133263e+02,1.046357928676945448e+03,7.210599719556885248e+02,9.446745872497558594e+00,3.824593424797058105e-01,-2.677215635776519775e-01,2.690000000000000000e+02
7.381322400545559503e+02,7.338070628008626954e+02,8.585899561674177676e+02,7.640816826667796704e+02,6.511058227393423294e+02,6.762251303161738178e+02,9.164927240790693759e+02,7.887924127730257169e+02,9.446745872497558594e+00,3.824593424797058105e-01,-2.677215635776519775e-01,2.700000000000000000e+02
7.384639715634548338e+02,7.317866947588609037e+02,8.597535083974253212e+02,7.571548533024288190e+02,6.560984986650673818e+02,6.781161207646109688e+02,8.835905649533797259e+02,7.767823088077238936e+02,9.446745872497558594e+00,3.824593424797058105e-01,-2.677215635776519775e-01,2.710000000000000000e+02
6.894847972680327075e+02,6.678335543278826663e+02,7.995891386618259276e+02,8.013812901060118747e+02,6.176285517701635399e+02,6.209179100043675135e+02,9.658816459219324315e+02,6.840984788085988839e+02,9.446745872497558594e+00,3.824593424797058105e-01,-2.677215635776519775e-01,2.720000000000000000e+02
6.454408517749980092e+02,6.160060516745779751e+02,7.442468095204476413e+02,8.151230142553831683e+02,5.742536796213480557e+02,5.669613956060111377e+02,1.023198368669522097e+03,6.209412479929560504e+02,9.446745872497558594e+00,3.824593424797058105e-01,-2.677215635776519775e-01,2.730000000000000000e+02
6.540582752276350220e+02,6.340793068510756711e+02,7.529770027797712828e+02,7.601276825289496628e+02,5.703957701957224344e+02,5.748275729872093507e+02,9.505285025531557039e+02,6.567019537793676136e+02,9.446745872497558594e+00,3.824593424797058105e-01,-2.677215635776519775e-01,2.740000000000000000e+02
6.900144465374160063e+02,6.821360343376472883e+02,7.966826120103396534e+02,6.941778320295015874e+02,5.948884833581432758e+02,6.186420660128551390e+02,8.233590347405661305e+02,7.244350692432581127e+02,9.446745872497558594e+00,3.824593424797058105e-01,-2.677215635776519775e-01,2.750000000000000000e+02
6.886891507113377884e+02,6.781130994115301291e+02,7.978129264813505870e+02,6.911031808525167435e+02,5.970931879517684138e+02,6.236132789451967255e+02,7.934128897308037267e+02,7.137237134017068456e+02,9.446745872497558594e+00,3.824593424797058105e-01,-2.677215635776519775e-01,2.760000000000000000e+02
6.352070969910528220e+02,6.118284500025984016e+02,7.368612196651720296e+02,7.387795890778124885e+02,5.582039102373819333e+02,5.695234954715742788e+02,8.783022744458721718e+02,6.235672273171367124e+02,9.446745872497558594e+00,3.824593424797058105e-01,-2.677215635776519775e-01,2.770000000000000000e+02
5.864458069553547830e+02,5.585090635735396063e+02,6.793494927732062934e+02,7.554734455032157712e+02,5.178470304517159093e+02,5.187453575728650321e+02,9.366258393966963922e+02,5.635687056993865554e+02,9.446745872497558594e+00,3.824593424797058105e-01,-2.677215635776519775e-01,2.780000000000000000e+02
5.937389472298800683e+02,5.747412610626379319e+02,6.860501092787708330e+02,7.021675176117860246e+02,5.188108024730299803e+02,5.292926990488358570e+02,8.636558679014597146e+02,6.018429279824413243e+02,9.446745872497558594e+00,3.824593424797058105e-01,-2.677215635776519775e-01,2.790000000000000000e+02
6.318323756381487328e+02,6.212322155859637860e+02,7.297651208163752017e+02,6.363279317132692086e+02,5.472291214338129066e+02,5.742785692136658326e+02,7.365286548274816596e+02,6.706750166876554431e+02,9.446745872497558594e+00,3.824593424797058105e-01,-2.677215635776519775e-01,2.800000000000000000e+02
6.334009715259908262e+02,6.174004353364616691e+02,7.331531651255936595e+02,6.326642814179886045e+02,5.512710622226550186e+02,5.801331489288040757e+02,7.075527170413079148e+02,6.607124414519166749e+02,9.446745872497558594e+00,3.824593424797058105e-01,-2.677215635776519775e-01,2.810000000000000000e+02
5.823670837231256883e+02,5.522365644689762121e+02,6.755136353328271070e+02,6.798236735343598411e+02,5.122697976264462341e+02,5.287258431252212176e+02,7.934994324096333003e+02,5.724351391389409400e+02,9.446745872497558594e+00,3.824593424797058105e-01,-2.677215635776519775e-01,2.820000000000000000e+02
5.360646182244672673e+02,4.997385665168276319e+02,6.211863194001070951e+02,6.959559865419250855e+02,4.703466922114002955e+02,4.804574721068747749e+02,8.529537580295982480e+02,5.146482075442072528e+02,9.446745872497558594e+00,3.824593424797058105e-01,-2.677215635776519775e-01,2.830000000000000000e+02
5.452251800384728995e+02,5.175478275761342957e+02,6.304237163167581457e+02,6.419298280783186783e+02,4.696805010481384670e+02,4.889464284004388901e+02,7.825219900236588728e+02,5.534300735956276185e+02,9.446745872497558594e+00,3.824593424797058105e-01,-2.677215635776519775e-01,2.840000000000000000e+02
5.836543327580020559e+02,5.676559006273946579e+02,6.758587302895248285e+02,5.755545617032385053e+02,4.984212757087625505e+02,5.276945853939705557e+02,6.596500942244347243e+02,6.214183969900950615e+02,9.446745872497558594e+00,3.824593424797058105e-01,-2.677215635776519775e-01,2.850000000000000000e+02
5.850809760826905404e+02,5.688796823721149849e+02,6.798670396875422739e+02,5.717103985083358566e+02,5.051878639511414804e+02,5.279330312679976487e+02,6.347232235338451574e+02,6.113078015271166805e+02,9.446745872497558594e+00,3.824593424797058105e-01,-2.677215635776519775e-01,2.860000000000000000e+02
5.349633723777114938e+02,5.091345719376422494e+02,6.215755723522870539e+02,6.190828495120731532e+02,4.695105798469794536e+02,4.736042365100020106e+02,7.225084708463946299e+02,5.233930517901935673e+02,9.446745872497558594e+00,3.824593424797058105e-01,-2.677215635776519775e-01,2.870000000000000000e+02
4.899006992215072387e+02,4.615835276177094784e+02,5.659242664966386656e+02,6.366060730988028808e+02,4.296989651014919218e+02,4.244986185970828956e+02,7.819301827760027663e+02,4.650293268446239381e+02,9.446745872497558594e+00,3.824593424797058105e-01,-2.677215635776519775e-01,2.880000000000000000e+02
4.992196614341592067e+02,4.823000032869476854e+02,5.744413487215424539e+02,5.863506591013501748e+02,4.297941766869880666e+02,4.360636474045786599e+02,7.116446692663666909e+02,5.035261375402733393e+02,9.446745872497558594e+00,3.824593424797058105e-01,-2.677215635776519775e-01,2.890000000000000000e+02
5.378070972367931972e+02,5.321971517366819171e+02,6.207727134044016566e+02,5.257947701991142821e+02,4.586659252212521096e+02,4.828040554581821198e+02,5.902811644887624425e+02,5.733620474123490567e+02,9.446745872497558594e+00,3.824593424797058105e-01,-2.677215635776519775e-01,2.900000000000000000e+02
5.416138372210371017e+02,5.312526206932234345e+02,6.275278602990001673e+02,5.271157994594759657e+02,4.656152646093032672e+02,4.905351630397635745e+02,5.676961216376257653e+02,5.654454281809394161e+02,9.484992027282714844e+00,3.059675097465515137e-01,-3.059675097465515137e-01,2.910000000000000000e+02
4.955850096994909109e+02,4.689937205889345933e+02,5.732991532048126828e+02,5.761737873249330733e+02,4.308810770595882786e+02,4.376781991542302421e+02,6.580118726140717627e+02,4.779537760858656839e+02,9.484992027282714844e+00,3.059675097465515137e-01,-3.059675097465515137e-01,2.920000000000000000e+02
4.532291516069381032e+02,4.186952144839033281e+02,5.216576663395499054e+02,5.918815424656859250e+02,3.929124706599614001e+02,3.867453987955123011e+02,7.203107302648859331e+02,4.203671269756487163e+02,9.484992027282714844e+00,3.059675097465515137e-01,-3.059675097465515137e-01,2.930000000000000000e+02
4.621720079196093138e+02,4.365888476227501087e+02,5.324541590822591388e+02,5.388449485729761363e+02,3.947649207214235503e+02,3.983814398376562167e+02,6.529130817540681164e+02,4.619158844512858195e+02,9.484992027282714844e+00,3.059675097465515137e-01,-3.059675097465515137e-01,2.940000000000000000e+02
4.987095775165544183e+02,4.846985352045121545e+02,5.785897090021790063e+02,4.768209127896989230e+02,4.245260781273755128e+02,4.461748883024374663e+02,5.330224242694675922e+02,5.340764709472896357e+02,9.484992027282714844e+00,3.059675097465515137e-01,-3.059675097465515137e-01,2.950000000000000000e+02
5.009330544751137495e+02,4.830768089947814588e+02,5.831880070820552646e+02,4.785812987565477670e+02,4.319789111819663958e+02,4.536657785817878903e+02,5.097622788789703918e+02,5.254706919705567998e+02,9.484992027282714844e+00,3.059675097465515137e-01,-3.059675097465515137e-01,2.960000000000000000e+02
4.545054306089150487e+02,4.204766589914142969e+02,5.259676132948115992e+02,5.296772013645640982e+02,3.976315254373694188e+02,4.019527763305886765e+02,5.983470712001872016e+02,4.376748194335414155e+02,9.484992027282714844e+00,3.059675097465515137e-01,-3.059675097465515137e-01,2.970000000000000000e+02
4.127986005315324292e+02,3.709565668913091940e+02,4.721769659025230794e+02,5.482861600007090601e+02,3.590722993749077432e+02,3.551746293866490305e+02,6.592967010782194848e+02,3.827691576675570104e+02,9.484992027282714844e+00,3.059675097465515137e-01,-3.059675097465515137e-01,2.980000000000000000e+02
4.231695141805503226e+02,3.915822949046378199e+02,4.834654664099107322e+02,4.976950063660478918e+02,3.593604537844075821e+02,3.694825230713795463e+02,5.913737683487888717e+02,4.264799277555684967e+02,9.484992027282714844e+00,3.059675097465515137e-01,-3.059675097465515137e-01,2.990000000000000000e+02
4.608078888288800954e+02,4.421424487715412397e+02,5.326802109057316557e+02,4.365912257365052938e+02,3.884796151701193594e+02,4.153053076740106917e+02,4.717626316518108069e+02,4.972914099831286876e+02,9.484992027282714844e+00,3.059675097465515137e-01,-3.059675097465515137e-01,3.000000000000000000e+02
4.623928602103587764e+02,4.401450833181334019e+02,5.407608081679354655e+02,4.378932863237205311e+02,3.976428118245457881e+02,4.198406575259068632e+02,4.494903191317753226e+02,4.868396077186807815e+02,9.484992027282714844e+00,3.059675097465515137e-01,-3.059675097465515137e-01,3.010000000000000000e+02
4.142942442766361637e+02,3.756841966159481672e+02,4.861190197955802432e+02,4.879332441969272622e+02,3.667554231928152149e+02,3.678773622538719792e+02,5.392461649826436769e+02,3.998340726333735802e+02,9.484992027282714844e+00,3.059675097465515137e-01,-3.059675097465515137e-01,3.020000000000000000e+02
3.726176457569999911e+02,3.251778436833519663e+02,4.345394330402850755e+02,5.055307396780153795e+02,3.320201175089896424e+02,3.220115190191500005e+02,6.012147897358590853e+02,3.464996522199216997e+02,9.484992027282714844e+00,3.059675097465515137e-01,-3.059675097465515137e-01,3.030000000000000000e+02
3.855930074773095839e+02,3.451037204647727776e+02,4.469617628395499196e+02,4.548806199405480584e+02,3.349531832456850680e+02,3.365754749394400278e+02,5.348462129887957417e+02,3.902987048311260878e+02,9.484992027282714844e+00,3.059675097465515137e-01,-3.059675097465515137e-01,3.040000000000000000e+02
4.258736138340536854e+02,3.950920060124262818e+02,4.941063294794221292e+02,3.956104686532889900e+02,3.636686062130029313e+02,3.833680069976871891e+02,4.180249577762369881e+02,4.608953027120369370e+02,9.484992027282714844e+00,3.059675097465515137e-01,-3.059675097465515137e-01,3.050000000000000000e+02
4.279956055775874120e+02,3.957910169713577488e+02,4.978464943728031358e+02,4.000990135129432019e+02,3.690991397674806649e+02,3.899237426863328437e+02,3.990715314433036838e+02,4.510165185758523876e+02,9.484992027282714844e+00,3.059675097465515137e-01,-3.059675097465515137e-01,3.060000000000000000e+02
3.793652364868248696e+02,3.383607520678560832e+02,4.406975470755896822e+02,4.528182096376403933e+02,3.336387279258124181e+02,3.383225912120542489e+02,4.912331693426895072e+02,3.641040936147692264e+02,9.484992027282714844e+00,3.059675097465515137e-01,-3.059675097465515137e-01,3.070000000000000000e+02
3.377715348268793605e+02,2.947391156049743586e+02,3.898109653750398138e+02,4.716804422880195489e+02,2.958041772960932576e+02,2.896770172372816887e+02,5.541858135914299055e+02,3.098187354749970837e+02,9.484992027282714844e+00,3.059675097465515137e-01,-3.059675097465515137e-01,3.080000000000000000e+02
3.515185458704909252e+02,3.176415018948900979e+02,4.036011780401931901e+02,4.214844052107291645e+02,2.970020777153913514e+02,3.003325286582257831e+02,4.880981299174382002e+02,3.529544734426926880e+02,9.484992027282714844e+00,3.059675097465515137e-01,-3.059675097465515137e-01,3.090000000000000000e+02
3.935624883901509747e+02,3.684223066226477385e+02,4.520358594694771455e+02,3.621374740533319709e+02,3.250216162186443398e+02,3.445574076665616303e+02,3.718902812617234304e+02,4.238284776325417624e+02,9.484992027282714844e+00,3.059675097465515137e-01,-3.059675097465515137e-01,3.100000000000000000e+02
3.994455064845751622e+02,3.703270304527686676e+02,4.592712524487433257e+02,3.657384591651207302e+02,3.314978859464572452e+02,3.503226411638606805e+02,3.543105977737650392e+02,4.146340565071877791e+02,9.484992027282714844e+00,3.059675097465515137e-01,-3.059675097465515137e-01,3.110000000000000000e+02
3.552306747645598080e+02,3.140415133822534699e+02,4.079315108900736959e+02,4.176780208885065804e+02,2.983469628709244716e+02,2.991064175664068898e+02,4.480670151356243878e+02,3.289282910748406721e+02,9.523238182067871094e+00,3.824593424797058105e-01,-3.824593424797058105e-01,3.120000000000000000e+02
3.152363699734924012e+02,2.708853065378461906e+02,3.621075257086522470e+02,4.374195360703452025e+02,2.626113357745052781e+02,2.518580828815465793e+02,5.120647440406173700e+02,2.767672947577411833e+02,9.523238182067871094e+00,3.824593424797058105e-01,-3.824593424797058105e-01,3.130000000000000000e+02
3.269665593697245640e+02,2.942879726471583126e+02,3.787726824331803073e+02,3.892664474408265960e+02,2.659558350936895295e+02,2.649660322433082911e+02,4.467581026999250753e+02,3.221493004239309812e+02,9.523238182067871094e+00,3.824593424797058105e-01,-3.824593424797058105e-01,3.140000000000000000e+02
3.662125429762745625e+02,3.448128938655245292e+02,4.290552674997488793e+02,3.310001782611179806e+02,2.969112651853429270e+02,3.120461441959523654e+02,3.321403176977983094e+02,3.943677542120276485e+02,9.523238182067871094e+00,3.824593424797058105e-01,-3.824593424797058105e-01,3.150000000000000000e+02
3.705472050287826278e+02,3.439616106173125445e+02,4.372239780658965174e+02,3.343251682167247054e+02,3.055877212042978499e+02,3.199753238800585677e+02,3.169623971673936467e+02,3.858351511445252982e+02,9.523238182067871094e+00,3.824593424797058105e-01,-3.824593424797058105e-01,3.160000000000000000e+02
3.256481396694507566e+02,2.834742783129076997e+02,3.845966800766436791e+02,3.863384034145565238e+02,2.727959562753057980e+02,2.701909595208198880e+02,4.124921551985171391e+02,3.006848675712353725e+02,9.523238182067871094e+00,3.824593424797058105e-01,-3.824593424797058105e-01,3.170000000000000000e+02
2.857472717373675550e+02,2.377115849608999270e+02,3.354634193183374009e+02,4.073121196867941762e+02,2.377367464082963124e+02,2.249214579937652161e+02,4.768833490054676076e+02,2.487916235126795073e+02,9.523238182067871094e+00,3.824593424797058105e-01,-3.824593424797058105e-01,3.180000000000000000e+02
2.987611005629150895e+02,2.611472655789948476e+02,3.487216385597239423e+02,3.607514221502060536e+02,2.434755055750538304e+02,2.409275236523026251e+02,4.117755903784782276e+02,2.939847282246191753e+02,9.523238182067871094e+00,3.824593424797058105e-01,-3.824593424797058105e-01,3.190000000000000000e+02
3.391860431771128788e+02,3.131302344887662912e+02,3.971440751510381233e+02,3.040894262473411800e+02,2.761872618476299976e+02,2.901023788549828168e+02,2.984514589234240702e+02,3.660702516829842352e+02,9.523238182067871094e+00,3.824593424797058105e-01,-3.824593424797058105e-01,3.200000000000000000e+02
3.429182231782542658e+02,3.139125715901172953e+02,4.057181663340306841e+02,3.091260848029560293e+02,2.846699217280074663e+02,2.980193950940010836e+02,2.849965000233351020e+02,3.578815639629319776e+02,9.523238182067871094e+00,3.824593424797058105e-01,-3.824593424797058105e-01,3.210000000000000000e+02
2.964614426632106188e+02,2.545238329629464715e+02,3.555771270964032738e+02,3.619271894930316193e+02,2.522372043138311710e+02,2.474059582767440588e+02,3.810891392562843976e+02,2.735294184730664711e+02,9.523238182067871094e+00,3.824593424797058105e-01,-3.824593424797058105e-01,3.220000000000000000e+02
2.560718083770552767e+02,2.092145005204802146e+02,3.096901417852350278e+02,3.818782349004068237e+02,2.191456891594862100e+02,2.022107768054047483e+02,4.448552564135388820e+02,2.229966698950847785e+02,9.523238182067871094e+00,3.824593424797058105e-01,-3.824593424797058105e-01,3.230000000000000000e+02
2.701096706861026178e+02,2.331989977297598671e+02,3.254039592916269612e+02,3.339580109190828807e+02,2.257848831485644041e+02,2.186803201926813927e+02,3.795400534318687278e+02,2.700216679409786593e+02,9.523238182067871094e+00,3.824593424797058105e-01,-3.824593424797058105e-01,3.240000000000000000e+02
3.125959639446664369e+02,2.862256667104156804e+02,3.747677610742975958e+02,2.776549797582702013e+02,2.572264358071442985e+02,2.674010193287576840e+02,2.673270859538897639e+02,3.433340855874703266e+02,9.523238182067871094e+00,3.824593424797058105e-01,-3.824593424797058105e-01,3.250000000000000000e+02
3.193813809897765168e+02,2.880173378096151282e+02,3.825781527386825474e+02,2.844192082018344081e+02,2.644276992972554581e+02,2.745019693534122780e+02,2.554778998966212384e+02,3.348815263655633316e+02,9.523238182067871094e+00,3.824593424797058105e-01,-3.824593424797058105e-01,3.260000000000000000e+02
2.763001498437261034e+02,2.297702522500694613e+02,3.304666218949932954e+02,3.388587813995109173e+02,2.313942067403113469e+02,2.242202009065986203e+02,3.527323866400256520e+02,2.498110377552693535e+02,9.523238182067871094e+00,3.824593424797058105e-01,-3.824593424797058105e-01,3.270000000000000000e+02
2.380278967774538614e+02,1.864788275784449070e+02,2.833379192804277409e+02,3.605252407909065369e+02,1.970546272252286144e+02,1.803117223676890717e+02,4.174817098400089890e+02,1.998321578220820811e+02,9.523238182067871094e+00,3.824593424797058105e-01,-3.824593424797058105e-01,3.280000000000000000e+02
2.523420172908590757e+02,2.121843122383943410e+02,3.001276306886138627e+02,3.150050183992789243e+02,2.025520039430302859e+02,1.972264203478225681e+02,3.535398887301707873e+02,2.485177263275036239e+02,9.523238182067871094e+00,3.824593424797058105e-01,-3.824593424797058105e-01,3.290000000000000000e+02
2.942666965550597524e+02,2.645495525503756653e+02,3.516818982334298198e+02,2.607267794670769945e+02,2.350708187565542175e+02,2.447504104414692847e+02,2.429485271004814422e+02,3.232571948465047171e+02,9.523238182067871094e+00,3.824593424797058105e-01,-3.824593424797058105e-01,3.300000000000000000e+02
3.008366499784242478e+02,2.641863305134756956e+02,3.606415603956629639e+02,2.679599707948073046e+02,2.450941462744485762e+02,2.503443588156078476e+02,2.324801943628626759e+02,3.160872454207419651e+02,9.523238182067871094e+00,3.824593424797058105e-01,-3.824593424797058105e-01,3.310000000000000000e+02
2.585042616150676622e+02,2.051128003897538292e+02,3.087716337890051364e+02,3.218892864611407276e+02,2.145318307738853036e+02,1.998571996829268755e+02,3.313989057780127041e+02,2.329941497516920208e+02,9.523238182067871094e+00,3.824593424797058105e-01,-3.824593424797058105e-01,3.320000000000000000e+02
2.217883338245883351e+02,1.624129333751698141e+02,2.621848331042019709e+02,3.428831119812894030e+02,1.817251755995785061e+02,1.568768330497332499e+02,3.983113480475949473e+02,1.846246134288485337e+02,9.523238182067871094e+00,3.824593424797058105e-01,-3.824593424797058105e-01,3.330000000000000000e+02
2.371770871193148196e+02,1.881044116722441686e+02,2.796663321903542965e+02,2.962228781825251644e+02,1.879829486226481094e+02,1.746005127245225594e+02,3.367264893073734129e+02,2.325166197088328772e+02,9.523238182067871094e+00,3.824593424797058105e-01,-3.824593424797058105e-01,3.340000000000000000e+02
2.787219580323217087e+02,2.400854323999519693e+02,3.319362876485829474e+02,2.404263176027525333e+02,2.199928743853961350e+02,2.225865015458766720e+02,2.282096287635504268e+02,3.044055109819419158e+02,9.523238182067871094e+00,3.824593424797058105e-01,-3.824593424797058105e-01,3.350000000000000000e+02
2.849368260120754712e+02,2.408590030947234482e+02,3.427004385541076772e+02,2.469375376393581973e+02,2.283697799485453288e+02,2.291244356579991290e+02,2.192156759094505105e+02,2.949144435619673459e+02,9.523238182067871094e+00,3.824593424797058105e-01,-3.824593424797058105e-01,3.360000000000000000e+02
2.446063030321383849e+02,1.842947388632201182e+02,2.935496271631272975e+02,3.014322239415123477e+02,1.962573039031558437e+02,1.802218166184320580e+02,3.181102438806265127e+02,2.114957203813501110e+02,9.523238182067871094e+00,3.059675097465515137e-01,-2.677215635776519775e-01,3.370000000000000000e+02
2.116442238494928461e+02,1.439592893574554182e+02,2.484728168088768143e+02,3.236198215928307036e+02,1.628395692189078545e+02,1.388083182966511231e+02,3.835462398989548092e+02,1.639076320604872308e+02,9.523238182067871094e+00,3.059675097465515137e-01,-2.677215635776519775e-01,3.380000000000000000e+02
2.294542193606903311e+02,1.715275225166697055e+02,2.652833217090810649e+02,2.785384578153170878e+02,1.694628048738159123e+02,1.578571468732407084e+02,3.201929228663211688e+02,2.122688641206405009e+02,9.523238182067871094e+00,3.059675097465515137e-01,-2.677215635776519775e-01,3.390000000000000000e+02
2.705060833910829388e+02,2.248040147324936697e+02,3.158323728258328629e+02,2.248391573954577325e+02,2.023398670348251471e+02,2.068327214547898620e+02,2.106170837485842640e+02,2.837958877123455750e+02,9.523238182067871094e+00,3.059675097465515137e-01,-2.677215635776519775e-01,3.400000000000000000e+02
2.741295781060980516e+02,2.254606223895461881e+02,3.248766372888057958e+02,2.330537578859293717e+02,2.109383085454464890e+02,2.132110354488977464e+02,2.009601001175251440e+02,2.734787794229669089e+02,9.523238182067871094e+00,3.059675097465515137e-01,-2.677215635776519775e-01,3.410000000000000000e+02
2.298543918271607254e+02,1.675677818383919657e+02,2.746333746205709758e+02,2.875718510337683256e+02,1.779813071854878217e+02,1.628824702620477183e+02,2.988919263787029195e+02,1.897757817881974916e+02,9.523238182067871094e+00,3.059675097465515137e-01,-2.677215635776519775e-01,3.420000000000000000e+02
1.918430616442201426e+02,1.258856871967218467e+02,2.298919771497385227e+02,3.082828373862575972e+02,1.443936686265660683e+02,1.206703851994607248e+02,3.634361572757261456e+02,1.435964872099175409e+02,9.523238182067871094e+00,3.059675097465515137e-01,-2.677215635776519775e-01,3.430000000000000000e+02
2.049073428654810414e+02,1.520827443305315683e+02,2.476109777914243750e+02,2.614903981225506868e+02,1.527688682417719974e+02,1.411797930863394868e+02,3.002929400014327257e+02,1.953053994446454453e+02,9.523238182067871094e+00,3.059675097465515137e-01,-2.677215635776519775e-01,3.440000000000000000e+02
2.435307385667620110e+02,2.039821807755215559e+02,2.970560850574620417e+02,2.066329235406883527e+02,1.872534647075153771e+02,1.927984720065869624e+02,1.922892193972948007e+02,2.709631242213727091e+02,9.523238182067871094e+00,3.059675097465515137e-01,-2.677215635776519775e-01,3.450000000000000000e+02
2.472011515422345838e+02,2.055636251382020419e+02,3.027910912952720537e+02,2.145214467738478561e+02,1.951626958122215001e+02,2.011078569215605967e+02,1.847281645223920350e+02,2.638574157364491839e+02,9.523238182067871094e+00,3.059675097465515137e-01,-2.677215635776519775e-01,3.460000000000000000e+02
2.036040445131293382e+02,1.522373134899680736e+02,2.502384547675683280e+02,2.697928766345794429e+02,1.608187335929105757e+02,1.521894044026630581e+02,2.843434407570239273e+02,1.815566338915159577e+02,9.523238182067871094e+00,3.059675097465515137e-01,-2.677215635776519775e-01,3.470000000000000000e+02
1.656828590623408672e+02,1.156455153084025369e+02,2.059425524749312899e+02,2.919608422244564281e+02,1.273415614371988340e+02,1.119279194943810580e+02,3.501054307275771862e+02,1.353744018350116676e+02,9.523238182067871094e+00,3.059675097465515137e-01,-2.677215635776519775e-01,3.480000000000000000e+02
1.791601762641221285e+02,1.441408427372589358e+02,2.253305659408943029e+02,2.462097571915801382e+02,1.361867685505130794e+02,1.342742836176694254e+02,2.884475755989988102e+02,1.865853041242080508e+02,9.523238182067871094e+00,3.059675097465515137e-01,-2.677215635776519775e-01,3.490000000000000000e+02
2.196927120084583294e+02,1.967520248036234989e+02,2.768948378913264605e+02,1.912977202650217805e+02,1.701192255085188663e+02,1.862158914153478690e+02,1.825960384586942382e+02,2.617318608245113865e+02,9.523238182067871094e+00,3.059675097465515137e-01,-2.677215635776519775e-01,3.500000000000000000e+02
2.260788790182414232e+02,1.993570271406279062e+02,2.862699923172112904e+02,1.981843884633854032e+02,1.781324511880229693e+02,1.934154768147200230e+02,1.772547602652775822e+02,2.541986190804454964e+02,9.523238182067871094e+00,3.059675097465515137e-01,-2.677215635776519775e-01,3.510000000000000000e+02
1.849849413542760885e+02,1.457552793842187384e+02,2.381168221010666457e+02,2.516154596543274238e+02,1.456109064001648221e+02,1.426299228043499170e+02,2.782233670413697837e+02,1.716010069918993395e+02,9.523238182067871094e+00,3.059675097465515137e-01,-2.677215635776519775e-01,3.520000000000000000e+02
1.506336174231109908e+02,1.064845255188120063e+02,1.965769457527130726e+02,2.712629369448113721e+02,1.131458979063172592e+02,9.926851517023897031e+01,3.446009156905201962e+02,1.249007490310323192e+02,9.523238182067871094e+00,3.059675097465515137e-01,-2.677215635776519775e-01,3.530000000000000000e+02
1.702903206841074280e+02,1.325829783186636632e+02,2.171709995368655655e+02,2.233969888413339504e+02,1.204227542317457846e+02,1.170873211629950674e+02,2.835377564781811088e+02,1.747505479824758368e+02,9.523238182067871094e+00,3.059675097465515137e-01,-2.677215635776519775e-01,3.540000000000000000e+02
2.171272021058102837e+02,1.848654432948533213e+02,2.701948844583166647e+02,1.679310128713768790e+02,1.526965260523720644e+02,1.652378240368489060e+02,1.782938715291020344e+02,2.482074900249062921e+02,9.523238182067871094e+00,3.059675097465515137e-01,-2.677215635776519775e-01,3.550000000000000000e+02
2.253881698339100694e+02,1.874568198720371583e+02,2.805096657246685936e+02,1.754050253381719813e+02,1.617072830351244193e+02,1.721050426059591700e+02,1.730453953170581372e+02,2.406140791063735378e+02,9.523238182067871094e+00,3.059675097465515137e-01,-2.677215635776519775e-01,3.560000000000000000e+02
1.816122361538946279e+02,1.339107640926231397e+02,2.307926508766831830e+02,2.293775175838673022e+02,1.317310751453333069e+02,1.241949027939626831e+02,2.737211802220408572e+02,1.606159057594704791e+02,9.523238182067871094e+00,3.059675097465515137e-01,-2.677215635776519775e-01,3.570000000000000000e+02
1.440851760043515242e+02,9.758547782856476260e+01,1.863758948083705036e+02,2.496012761065139784e+02,1.008203130641486496e+02,8.393681716495484579e+01,3.400077050431500538e+02,1.174294902962501510e+02,9.523238182067871094e+00,3.059675097465515137e-01,-2.677215635776519775e-01,3.580000000000000000e+02
1.613972358497849200e+02,1.292496417639413266e+02,2.052953169975298806e+02,2.032603258821327472e+02,1.083666954070213251e+02,1.030458290605020011e+02,2.791336830746076885e+02,1.689595085506589385e+02,9.523238182067871094e+00,3.059675097465515137e-01,-2.677215635776519775e-01,3.590000000000000000e+02
2.044722154784103623e+02,1.849274612717126729e+02,2.571950092574552400e+02,1.502564020898207673e+02,1.408015295672303182e+02,1.513639662391360616e+02,1.736854943182042916e+02,2.415841429241409060e+02,9.523238182067871094e+00,3.059675097465515137e-01,-2.677215635776519775e-01,3.600000000000000000e+02
2.082101584277406801e+02,1.866234473688600701e+02,2.652717043135635322e+02,1.605970581962537835e+02,1.501801432553183986e+02,1.588420427580786054e+02,1.674951420397119364e+02,2.324158386849958333e+02,9.523238182067871094e+00,3.059675097465515137e-01,-2.677215635776519775e-01,3.610000000000000000e+02
1.633160663066737470e+02,1.311050837479706388e+02,2.139225936449729488e+02,2.180521055568460724e+02,1.203336981856846251e+02,1.124148777120135492e+02,2.662906428074202267e+02,1.519768021368727204e+02,9.523238182067871094e+00,3.059675097465515137e-01,-2.677215635776519775e-01,3.620000000000000000e+02
1.289471423785580555e+02,9.390589875514706364e+01,1.708524949385973741e+02,2.425440449851666926e+02,8.938256323039240669e+01,7.410908104477130109e+01,3.311837619199504843e+02,1.094687539992519305e+02,9.523238182067871094e+00,3.059675097465515137e-01,-2.677215635776519775e-01,3.630000000000000000e+02
1.500988884746038821e+02,1.238887850477258326e+02,1.923221562374237692e+02,2.002397822690836620e+02,9.721148058259132085e+01,9.542192474019975634e+01,2.696152699845260940e+02,1.613896487078891369e+02,9.408499717712402344e+00,3.824593424797058105e-01,-3.824593424797058105e-01,3.640000000000000000e+02
1.957509840546117630e+02,1.763275008320924826e+02,2.447936159346936620e+02,1.497358406279527117e+02,1.299796818003451335e+02,1.460132525799781433e+02,1.640605086528812535e+02,2.334363482124681468e+02,9.408499717712402344e+00,3.824593424797058105e-01,-3.824593424797058105e-01,3.650000000000000000e+02
2.018328469677289831e+02,1.762035853634370142e+02,2.521145239726320142e+02,1.605197318261925830e+02,1.386428166798214079e+02,1.552148146952386014e+02,1.581473879821569426e+02,2.235191997258880292e+02,9.408499717712402344e+00,3.824593424797058105e-01,-3.824593424797058105e-01,3.660000000000000000e+02
1.586389439813356148e+02,1.220147125525181764e+02,2.012307355832745088e+02,2.163199746860045707e+02,1.070386155237501953e+02,1.094301785581992590e+02,2.579219497838639654e+02,1.428824924724685843e+02,9.408499717712402344e+00,3.824593424797058105e-01,-3.824593424797058105e-01,3.670000000000000000e+02
1.236077075618304661e+02,8.694838149467250332e+01,1.595787379595785751e+02,2.376785546407481888e+02,7.536059737086179666e+01,7.103500534074555617e+01,3.233696276700356975e+02,1.003914857350464445e+02,9.408499717712402344e+00,3.824593424797058105e-01,-3.824593424797058105e-01,3.680000000000000000e+02
1.426185848884415464e+02,1.177925792926034774e+02,1.815577534313633805e+02,1.926237922121072188e+02,8.480075187276815996e+01,9.229393975801940542e+01,2.621178985933365766e+02,1.522582596295105759e+02,9.408499717712402344e+00,3.824593424797058105e-01,-3.824593424797058105e-01,3.690000000000000000e+02
1.872197357231852948e+02,1.710336771083675558e+02,2.337368251985535608e+02,1.413775006145515363e+02,1.194207716857854393e+02,1.428177974399295636e+02,1.572890589985472616e+02,2.244146182300755754e+02,9.408499717712402344e+00,3.824593424797058105e-01,-3.824593424797058105e-01,3.700000000000000000e+02
1.939793985565120238e+02,1.725058671824444900e+02,2.409119460809306474e+02,1.526848587704371312e+02,1.276225782417313894e+02,1.510352480588480830e+02,1.526509389168058988e+02,2.142715841062745312e+02,9.408499717712402344e+00,3.824593424797058105e-01,-3.824593424797058105e-01,3.710000000000000000e+02
1.522175315522545134e+02,1.184745979140498093e+02,1.894318944708065828e+02,2.082421797903371044e+02,9.449920008439221419e+01,1.030799434766740887e+02,2.535717355204251362e+02,1.320710756150510861e+02,9.408499717712402344e+00,3.824593424797058105e-01,-3.824593424797058105e-01,3.720000000000000000e+02
1.184242071610933635e+02,8.049624836264410987e+01,1.460610560724235256e+02,2.281070173225307371e+02,6.301431124871305656e+01,6.248199315129022580e+01,3.195583621465339093e+02,8.718258452472218778e+01,9.408499717712402344e+00,3.824593424797058105e-01,-3.824593424797058105e-01,3.730000000000000000e+02
1.374005405276693637e+02,1.074131397229866707e+02,1.662955817659385502e+02,1.816198692235993803e+02,7.370007564919069409e+01,8.282997910666017560e+01,2.587552861653821310e+02,1.376511227964801947e+02,9.408499717712402344e+00,3.824593424797058105e-01,-3.824593424797058105e-01,3.740000000000000000e+02
1.805592115182225825e+02,1.581363899140706053e+02,2.181366214022564236e+02,1.300897211167684873e+02,1.082695748425758211e+02,1.337010039142405731e+02,1.549383616966370028e+02,2.102368604438379407e+02,9.408499717712402344e+00,3.824593424797058105e-01,-3.824593424797058105e-01,3.750000000000000000e+02
1.864487637609345256e+02,1.580162151962576900e+02,2.267289273028072785e+02,1.422467726688555558e+02,1.160691718310627039e+02,1.425930314380238997e+02,1.513820490262878593e+02,2.019653901908313856e+02,9.408499717712402344e+00,3.824593424797058105e-01,-3.824593424797058105e-01,3.760000000000000000e+02
1.454866606338473503e+02,1.023636993852414889e+02,1.783610719404678093e+02,1.992496593413889059e+02,8.464533481257240055e+01,9.521640600663522491e+01,2.522650819405826041e+02,1.229597885560579016e+02,9.408499717712402344e+00,3.824593424797058105e-01,-3.824593424797058105e-01,3.770000000000000000e+02
1.120058539578458294e+02,6.374858763118390925e+01,1.393454001840145793e+02,2.205266400371401687e+02,5.589790025068941759e+01,5.518874892451276537e+01,3.169735005627444480e+02,8.231170653292065253e+01,9.408499717712402344e+00,3.824593424797058105e-01,-3.824593424797058105e-01,3.780000000000000000e+02
1.292492678416747367e+02,9.164660666913550813e+01,1.633943907823268091e+02,1.748515688612824306e+02,6.773933432745980099e+01,7.578358701295655919e+01,2.550035085963027086e+02,1.366175510875618784e+02,9.408499717712402344e+00,3.824593424797058105e-01,-3.824593424797058105e-01,3.790000000000000000e+02
1.707163551867706701e+02,1.436476666743692476e+02,2.164400178244395647e+02,1.232677103976748185e+02,1.027529589837868116e+02,1.261357645686293836e+02,1.511975032106711296e+02,2.113379906530753942e+02,9.408499717712402344e+00,3.824593424797058105e-01,-3.824593424797058105e-01,3.800000000000000000e+02
1.769273343223321717e+02,1.446218437849893235e+02,2.233563236191403121e+02,1.346451195219779038e+02,1.123628880589385517e+02,1.341978490751716890e+02,1.482430505315423943e+02,2.035536724349440192e+02,9.408499717712402344e+00,3.824593424797058105e-01,-3.824593424797058105e-01,3.810000000000000000e+02
1.373437416643864708e+02,9.142912384598457720e+01,1.717339706594648305e+02,1.907496430070241331e+02,8.228565972813521512e+01,8.671303568451548927e+01,2.491405186330230208e+02,1.235854388853913406e+02,9.408499717712402344e+00,3.824593424797058105e-01,-3.824593424797058105e-01,3.820000000000000000e+02
1.054287262547077262e+02,5.696824447276594583e+01,1.291720799034010270e+02,2.119059587524097878e+02,5.150248004750028485e+01,4.743244346059509553e+01,3.133278639816562645e+02,8.026696581832948141e+01,9.408499717712402344e+00,3.824593424797058105e-01,-3.824593424797058105e-01,3.830000000000000000e+02
1.247991225056102849e+02,8.832206889256485738e+01,1.505579713481783983e+02,1.671968756775750080e+02,5.980632828491798136e+01,6.855960798729938688e+01,2.515547078100353247e+02,1.310203191337350290e+02,9.408499717712402344e+00,3.824593424797058105e-01,-3.824593424797058105e-01,3.840000000000000000e+02
1.676784450633276720e+02,1.408642383647966199e+02,2.031052114047852228e+02,1.168131179294578033e+02,9.391751173730153823e+01,1.185256950485781999e+02,1.494854301890300121e+02,2.032690606719843345e+02,9.408499717712402344e+00,3.824593424797058105e-01,-3.824593424797058105e-01,3.850000000000000000e+02
1.725525784977435251e+02,1.395847620086569805e+02,2.117356451986488537e+02,1.285815154434530996e+02,1.050826358631384210e+02,1.261331982585325022e+02,1.491204691490129335e+02,1.949413569081370952e+02,9.408499717712402344e+00,3.824593424797058105e-01,-3.824593424797058105e-01,3.860000000000000000e+02
1.301213692587698461e+02,8.293091902203741483e+01,1.623009740758934640e+02,1.842338207645516377e+02,7.576236758953746175e+01,7.926929047422163421e+01,2.518486279003263917e+02,1.154101847605488729e+02,9.408499717712402344e+00,3.824593424797058105e-01,-3.824593424797058105e-01,3.870000000000000000e+02
9.692770399595610797e+01,4.572671780930249952e+01,1.210619926902072621e+02,2.046809416970281745e+02,4.451196510584122734e+01,4.110874869767576456e+01,3.162621362164791208e+02,7.246550090446544345e+01,9.408499717712402344e+00,3.824593424797058105e-01,-3.824593424797058105e-01,3.880000000000000000e+02
1.170690860487229656e+02,7.675276925585785648e+01,1.434885138724421267e+02,1.586547649408894358e+02,5.321290211812447524e+01,6.241444002737262053e+01,2.524458153752784710e+02,1.233795056059607305e+02,9.408499717712402344e+00,3.824593424797058105e-01,-3.824593424797058105e-01,3.890000000000000000e+02
1.605791906844824553e+02,1.310527687485882780e+02,1.973943937496296712e+02,1.070185381614573998e+02,8.789065123185719131e+01,1.113993077390477993e+02,1.484234939928428503e+02,1.954332403208463802e+02,9.408499717712402344e+00,3.824593424797058105e-01,-3.824593424797058105e-01,3.900000000000000000e+02
1.658642499513371149e+02,1.323969762013730360e+02,2.064669496672795503e+02,1.179964067771652481e+02,9.801879163116973359e+01,1.189304141537722899e+02,1.458860759844246786e+02,1.871347816863562912e+02,9.408499717712402344e+00,3.824593424797058105e-01,-3.824593424797058105e-01,3.910000000000000000e+02
1.249127494132553693e+02,7.839097932702861726e+01,1.557479268586102990e+02,1.739201708199761924e+02,6.745350327439518878e+01,7.430179814127041027e+01,2.456087049417837989e+02,1.091106668934007757e+02,9.408499717712402344e+00,3.824593424797058105e-01,-3.824593424797058105e-01,3.920000000000000000e+02
9.398501016381487716e+01,4.322446893210872076e+01,1.134051056701500784e+02,1.959890198066423181e+02,3.789932040510757361e+01,3.991134214486373821e+01,3.072969885472848546e+02,6.953704945381468860e+01,9.408499717712402344e+00,3.824593424797058105e-01,-3.824593424797058105e-01,3.930000000000000000e+02
1.154219149413256673e+02,7.442074058810976567e+01,1.370745842191536212e+02,1.536012303717434406e+02,5.084634538010868710e+01,6.489813193964073434e+01,2.442942642850393895e+02,1.239154586035801913e+02,9.408499717712402344e+00,3.824593424797058105e-01,-3.824593424797058105e-01,3.940000000000000000e+02
1.591542346295755124e+02,1.272728604047442786e+02,1.936441840727202361e+02,1.062818350874586031e+02,8.942688770177483093e+01,1.169012780514385668e+02,1.430860726741811959e+02,1.975458397117763525e+02,9.446745872497558594e+00,3.824593424797058105e-01,-3.059675097465515137e-01,3.950000000000000000e+02
1.644978459901612950e+02,1.268852834740755497e+02,2.046976903910399415e+02,1.204091028542825370e+02,1.017244210838034633e+02,1.259764879997092066e+02,1.432321139638661407e+02,1.885768646597571205e+02,9.446745872497558594e+00,3.824593424797058105e-01,-3.059675097465515137e-01,3.960000000000000000e+02
1.240650030951364897e+02,7.111000108087318949e+01,1.553504759635834489e+02,1.764876652436796576e+02,7.245582105391076766e+01,8.058000147779239342e+01,2.445428513464721618e+02,1.091093187317601405e+02,9.446745872497558594e+00,3.824593424797058105e-01,-3.059675097465515137e-01,3.970000000000000000e+02
