F3,F4,C3,C4,P3,P4,Cz,Pz,Accel_x,Accel_y,Accel_z,Sample
3.910827217623591423e-11,3.183231456205248833e-12,6.821210263296961784e-12,6.366462912410497665e-12,5.002220859751105309e-12,-4.547473508864641190e-13,-1.728039933368563652e-11,-5.002220859751105309e-12,9.484992027282714844e+00,1.912296712398529053e-01,-3.824593424797058105e-01,0.000000000000000000e+00
-2.796997110320180582e+02,-4.531043782590031697e+02,-4.538578872892871914e+02,-9.602966359339052360e+02,-2.906500730959214707e+02,-2.278553656308490645e+02,-7.364971058935202564e+02,-6.669257804437716004e+02,9.484992027282714844e+00,1.912296712398529053e-01,-3.824593424797058105e-01,1.000000000000000000e+00
-4.243933880207755465e+02,-6.665522450774906247e+02,-6.668637208556092446e+02,-1.425124858897878312e+03,-4.716410348396552763e+02,-3.899732891000580821e+02,-1.422317223290229322e+03,-9.171757412534225296e+02,9.484992027282714844e+00,1.912296712398529053e-01,-3.824593424797058105e-01,2.000000000000000000e+00
-3.975499835637242541e+02,-6.314138119695035130e+02,-6.237206272743246700e+02,-1.346043420053770205e+03,-5.061948436148616111e+02,-4.250233346199606785e+02,-1.886992599284928474e+03,-7.864026890110985732e+02,9.484992027282714844e+00,1.912296712398529053e-01,-3.824593424797058105e-01,3.000000000000000000e+00
-2.728017783800692087e+02,-5.111588993327306980e+02,-4.867801589520649941e+02,-1.278725034041193339e+03,-4.448314880700706908e+02,-3.469987588324811441e+02,-2.098066396384562267e+03,-6.068747461103546357e+02,9.484992027282714844e+00,1.912296712398529053e-01,-3.824593424797058105e-01,4.000000000000000000e+00
-1.659174494720514303e+02,-4.402488845102911910e+02,-3.990096942993716311e+02,-1.833096764254978552e+03,-3.841069150920188804e+02,-2.703404600638245938e+02,-2.193480411150534110e+03,-5.702257552782302810e+02,9.484992027282714844e+00,1.912296712398529053e-01,-3.824593424797058105e-01,5.000000000000000000e+00
-1.208251429425836250e+02,-4.232919412183739496e+02,-3.736983298715647379e+02,-2.866557855215770360e+03,-3.741122952071016243e+02,-2.706573810268348552e+02,-2.283108854292554497e+03,-6.027184761124199213e+02,9.484992027282714844e+00,1.912296712398529053e-01,-3.824593424797058105e-01,6.000000000000000000e+00
-7.071694189903155348e+01,-3.817394596340386670e+02,-3.302295158515380535e+02,-3.565507568174141397e+03,-3.674333329145340485e+02,-2.754709561133652187e+02,-2.418652269537615211e+03,-5.579069951434355517e+02,9.484992027282714844e+00,1.912296712398529053e-01,-3.824593424797058105e-01,7.000000000000000000e+00
8.011882889273010733e+01,-2.399602275675033525e+02,-1.872057877017605279e+02,-3.511792303951451686e+03,-2.738202146607873146e+02,-1.629412494138036891e+02,-2.834065336999392912e+03,-3.800794929714509180e+02,9.484992027282714844e+00,1.912296712398529053e-01,-3.824593424797058105e-01,8.000000000000000000e+00
3.125488573104830721e+02,-2.340341661229808778e+01,3.399452242662277968e+01,-3.222212978733801265e+03,-9.569720589638313868e+01,4.461880050843046774e+01,-3.639520755036936407e+03,-1.483186159294630215e+02,9.484992027282714844e+00,1.912296712398529053e-01,-3.824593424797058105e-01,9.000000000000000000e+00
4.766691510449659290e+02,1.269921679606443377e+02,2.005264243453793824e+02,-3.332757271684258740e+03,3.714837992466391370e+01,1.801410007413819585e+02,-4.326334033143235501e+03,-1.613796382928489948e+01,9.484992027282714844e+00,1.912296712398529053e-01,-3.824593424797058105e-01,1.000000000000000000e+01
5.135306947536114421e+02,1.514351547589546954e+02,2.505607484972269958e+02,-3.720327800261697575e+03,6.137200044171163427e+01,1.850205822272200749e+02,-4.536909931455910737e+03,-1.553922401769432327e+01,9.484992027282714844e+00,1.912296712398529053e-01,-3.824593424797058105e-01,1.100000000000000000e+01
5.874389044193017071e+02,2.084556189449276644e+02,3.189768536088606652e+02,-3.846454850899938265e+03,1.132472487534432730e+02,2.295118192098932468e+02,-4.956040052103496237e+03,3.357127945692468529e+01,9.484992027282714844e+00,1.912296712398529053e-01,-3.824593424797058105e-01,1.200000000000000000e+01
8.129349665352199281e+02,4.218259251532433609e+02,5.260831272176030780e+02,-3.599859096132767263e+03,2.976996732136633455e+02,4.303848980989246229e+02,-6.067769139788824759e+03,2.612082018386072377e+02,9.484992027282714844e+00,1.912296712398529053e-01,-3.824593424797058105e-01,1.300000000000000000e+01
1.029950558106999779e+03,6.431110652013410345e+02,7.610578666240182883e+02,-3.376742310865307900e+03,4.824885718702996655e+02,6.337787447073135354e+02,-6.992000172013506017e+03,5.149356680380537910e+02,9.484992027282714844e+00,1.912296712398529053e-01,-3.824593424797058105e-01,1.400000000000000000e+01
1.109032041708524048e+03,7.270601322759182494e+02,8.844294093706114381e+02,-3.512252975599352794e+03,5.542758796681850981e+02,7.029532039864966464e+02,-7.268351756862023649e+03,6.079545256668441198e+02,9.484992027282714844e+00,1.912296712398529053e-01,-3.824593424797058105e-01,1.500000000000000000e+01
1.199001186990047700e+03,7.976508911370351598e+02,9.679030048879988044e+02,-3.892760822185877259e+03,6.345585870311783765e+02,7.628305337320409762e+02,-7.977889098289418143e+03,6.247026772082890602e+02,9.484992027282714844e+00,1.912296712398529053e-01,-3.824593424797058105e-01,1.600000000000000000e+01
1.382420470442873466e+03,9.542808502092748313e+02,1.107131494960269492e+03,-4.087972946961601338e+03,7.880724302776334298e+02,9.039626054140469478e+02,-9.285956217678487519e+03,7.331499369983387169e+02,9.484992027282714844e+00,1.912296712398529053e-01,-3.824593424797058105e-01,1.700000000000000000e+01
1.504855207330999519e+03,1.079238107312051170e+03,1.250053582919567134e+03,-3.884701612823040705e+03,8.835351353465300690e+02,1.010960604485314889e+03,-9.817366370186309723e+03,9.143097497063674837e+02,9.484992027282714844e+00,1.912296712398529053e-01,-3.824593424797058105e-01,1.800000000000000000e+01
1.596797730537291272e+03,1.184126338423850711e+03,1.400813818948952076e+03,-3.607660045001087383e+03,9.588128400513689940e+02,1.105617354740169503e+03,-1.000559251047436010e+04,1.096064293468296682e+03,9.484992027282714844e+00,1.912296712398529053e-01,-3.824593424797058105e-01,1.900000000000000000e+01
1.853819576093918840e+03,1.418593162146767327e+03,1.630821497375955232e+03,-3.583049297110329462e+03,1.187616685479030139e+03,1.334540745903690095e+03,-1.164057292604551549e+04,1.270182258444431909e+03,9.484992027282714844e+00,1.912296712398529053e-01,-3.824593424797058105e-01,2.000000000000000000e+01
2.064865673437710939e+03,1.600093202451589150e+03,1.790778247735667492e+03,-3.514663333142781994e+03,1.374346933358317301e+03,1.502381957605027537e+03,-1.330366768063556447e+04,1.348793672197660726e+03,9.484992027282714844e+00,1.912296712398529053e-01,-3.824593424797058105e-01,2.100000000000000000e+01
1.938226456679944704e+03,1.493729525300749856e+03,1.737600909238328086e+03,-3.089716822891247830e+03,1.255187346579624091e+03,1.373074627771032510e+03,-1.258467618381188913e+04,1.299500056115553207e+03,9.484992027282714844e+00,1.912296712398529053e-01,-3.824593424797058105e-01,2.200000000000000000e+01
1.945693324225204378e+03,1.522561435627337005e+03,1.808217183264489222e+03,-2.838927049747894671e+03,1.249634425653480093e+03,1.382136713971613972e+03,-1.246202686787411039e+04,1.414258527574072787e+03,9.484992027282714844e+00,1.912296712398529053e-01,-3.824593424797058105e-01,2.300000000000000000e+01
2.571573886512943773e+03,2.096394219005136620e+03,2.290594150817246828e+03,-3.218252929768062131e+03,1.792918769275227760e+03,1.947216462367516215e+03,-1.646892961750483664e+04,1.858022194533862603e+03,9.484992027282714844e+00,1.912296712398529053e-01,-3.824593424797058105e-01,2.400000000000000000e+01
2.885422931082091964e+03,2.380170956017222125e+03,2.550343175096346386e+03,-3.234654398232032690e+03,2.070303048545522870e+03,2.227526307694085517e+03,-1.856720644951048962e+04,2.059577316261756550e+03,9.484992027282714844e+00,1.912296712398529053e-01,-3.824593424797058105e-01,2.500000000000000000e+01
1.568178876545355934e+03,1.219475837097853628e+03,1.746559143061528630e+03,-1.610940126280480854e+03,9.176089585011861800e+02,1.059586467154010052e+03,-9.706908263087751038e+03,1.370965336790510946e+03,9.484992027282714844e+00,1.912296712398529053e-01,-3.824593424797058105e-01,2.600000000000000000e+01
-7.267134988568921017e+02,-7.909523686694997195e+02,3.324383551755011013e+02,9.252541595704285555e+02,-1.096720861727510282e+03,-9.631213235670313679e+02,6.034797755434316059e+03,2.334734493845203360e+02,9.446745872497558594e+00,1.529837548732757568e-01,-3.059675097465515137e-01,2.700000000000000000e+01
-1.953385550350225913e+03,-1.843626766573372151e+03,-3.696468230346481505e+02,2.355224722542328891e+03,-2.174881065813481200e+03,-2.028234241988340273e+03,1.497714474138530932e+04,-2.713246246985554535e+02,9.446745872497558594e+00,1.529837548732757568e-01,-3.059675097465515137e-01,2.800000000000000000e+01
-1.591829501995849569e+03,-1.496313308122832495e+03,-5.395523762989057559e+01,2.232627724239197050e+03,-1.855179186675392430e+03,-1.689204606993171637e+03,1.328026272563215025e+04,3.723653641395310387e+01,9.446745872497558594e+00,1.529837548732757568e-01,-3.059675097465515137e-01,2.900000000000000000e+01
-1.042957846540287392e+03,-1.002373293608447511e+03,3.485108326045919966e+02,1.956140452824814020e+03,-1.366962236513134712e+03,-1.198402675069078214e+03,9.766779659382871614e+03,3.525858247739628268e+02,9.446745872497558594e+00,1.529837548732757568e-01,-3.059675097465515137e-01,3.000000000000000000e+01
-1.152282316247362360e+03,-1.106209109553212329e+03,2.945224722772494488e+02,2.313318441290175542e+03,-1.458987706807451332e+03,-1.303102116849671347e+03,9.962107397437699547e+03,2.661592750629282591e+02,9.446745872497558594e+00,1.529837548732757568e-01,-3.059675097465515137e-01,3.100000000000000000e+01
-1.299051265773426849e+03,-1.238459802447537413e+03,2.168381697928668927e+02,2.663413242912120040e+03,-1.592035857096540440e+03,-1.440474069891397903e+03,1.038985947773131556e+04,2.004969681899409579e+02,9.446745872497558594e+00,1.529837548732757568e-01,-3.059675097465515137e-01,3.200000000000000000e+01
-1.012028308820189977e+03,-9.655134832880319209e+02,4.513298729786158674e+02,2.568128085937104061e+03,-1.349126994645697323e+03,-1.181645833050541114e+03,8.709594839112754926e+03,4.444257892190472603e+02,9.446745872497558594e+00,1.529837548732757568e-01,-3.059675097465515137e-01,3.300000000000000000e+01
-7.204980617857249854e+02,-6.763232988374252272e+02,7.119511124113745382e+02,2.492898254605182046e+03,-1.097699898719585235e+03,-9.110914234606298123e+02,7.505225328739517863e+03,7.050290382376845173e+02,9.446745872497558594e+00,1.529837548732757568e-01,-3.059675097465515137e-01,3.400000000000000000e+01
-7.206168657383041136e+02,-6.582909549473995412e+02,7.642998194920332935e+02,2.733200424317025409e+03,-1.092730954776819090e+03,-9.065127038908426584e+02,7.609288092915379821e+03,7.354819804134456263e+02,9.446745872497558594e+00,1.529837548732757568e-01,-3.059675097465515137e-01,3.500000000000000000e+01
-7.327907767552878795e+02,-6.703329079697005000e+02,7.711969630027712128e+02,2.971462082976906458e+03,-1.093258242650918874e+03,-9.245163617349892320e+02,6.909380155965531230e+03,6.942693718132857157e+02,9.446745872497558594e+00,1.529837548732757568e-01,-3.059675097465515137e-01,3.600000000000000000e+01
-5.896408718040033818e+02,-5.428150391097426564e+02,8.770879346545173121e+02,3.010969524504673700e+03,-9.602409881426647189e+02,-8.023623762982899734e+02,5.517791389352283659e+03,7.748115940558163857e+02,9.446745872497558594e+00,1.529837548732757568e-01,-3.059675097465515137e-01,3.700000000000000000e+01
-4.429856087237902784e+02,-3.936073918734516610e+02,1.022373104378832636e+03,3.024698562156310800e+03,-8.283756389045906872e+02,-6.622044897596047122e+02,5.323282793319962366e+03,9.499769620918601731e+02,9.446745872497558594e+00,1.529837548732757568e-01,-3.059675097465515137e-01,3.800000000000000000e+01
-3.446280918398765607e+02,-2.808016993607362792e+02,1.157873789417785247e+03,3.111150886209117289e+03,-7.366420799648435604e+02,-5.579675414422033555e+02,5.696070323105568605e+03,1.114299748854587506e+03,9.446745872497558594e+00,1.529837548732757568e-01,-3.059675097465515137e-01,3.900000000000000000e+01
-2.327173844119996602e+02,-1.708250283447704305e+02,1.276686545134551125e+03,3.213596504380977422e+03,-6.265233845684622338e+02,-4.520265012156429520e+02,4.796618796267188372e+03,1.199268292492508408e+03,9.446745872497558594e+00,1.529837548732757568e-01,-3.059675097465515137e-01,4.000000000000000000e+01
-1.543159174023784317e+02,-1.054850032320611035e+02,1.335427664881443661e+03,3.336738296506315237e+03,-5.458412404298587717e+02,-3.896653281163456768e+02,3.259564619780948306e+03,1.197272724327430069e+03,9.446745872497558594e+00,1.529837548732757568e-01,-3.059675097465515137e-01,4.100000000000000000e+01
-1.281288296920690755e+02,-8.200348644179746316e+01,1.358267192548550156e+03,3.469003240010405989e+03,-5.200298990550418239e+02,-3.733019455245021163e+02,2.721473107626634373e+03,1.208588371164025148e+03,9.446745872497558594e+00,1.529837548732757568e-01,-3.059675097465515137e-01,4.200000000000000000e+01
-3.820869095013642891e+01,1.594315811746082545e+01,1.456606625814717518e+03,3.517488673706275677e+03,-4.437603710432777007e+02,-2.846664828066742530e+02,2.853085032167447935e+03,1.345987027536739333e+03,9.446745872497558594e+00,1.529837548732757568e-01,-3.059675097465515137e-01,4.300000000000000000e+01
1.334632432143071128e+02,1.967865116939113932e+02,1.631903696511584258e+03,3.506063461898663718e+03,-2.884571425418606623e+02,-1.087920969863544087e+02,2.625636721931453849e+03,1.544312308050074080e+03,9.446745872497558594e+00,1.529837548732757568e-01,-3.059675097465515137e-01,4.400000000000000000e+01
2.424003385010119018e+02,3.131490333435376670e+02,1.746801417813153876e+03,3.582713389409491811e+03,-1.788071217905601316e+02,8.150189154833128669e+00,2.232256631486839069e+03,1.629429021530410409e+03,9.446745872497558594e+00,1.529837548732757568e-01,-3.059675097465515137e-01,4.500000000000000000e+01
2.434978679737191669e+02,3.166966889304256938e+02,1.751916368611988673e+03,3.757373356633994717e+03,-1.675946045256193884e+02,1.203134659180466315e+01,1.862945796498062691e+03,1.588636770681000144e+03,9.446745872497558594e+00,1.529837548732757568e-01,-3.059675097465515137e-01,4.600000000000000000e+01
2.668933409576785607e+02,3.362445939986081385e+02,1.764086094013644242e+03,3.873223661723463465e+03,-1.491946618227407271e+02,2.812670589455228765e+01,1.029906103898356832e+03,1.595091262507424290e+03,9.446745872497558594e+00,1.529837548732757568e-01,-3.059675097465515137e-01,4.700000000000000000e+01
3.926880576060669910e+02,4.609076479049011823e+02,1.878069260330730458e+03,3.868368662874505844e+03,-4.397292230293408011e+01,1.495936857540203846e+02,2.461145751715059760e+02,1.745802904223967744e+03,9.446745872497558594e+00,1.529837548732757568e-01,-3.059675097465515137e-01,4.800000000000000000e+01
5.428558492152584449e+02,6.185863843260380008e+02,2.036135060420791433e+03,3.859824299726858499e+03,9.275707005187985033e+01,3.084892272862881555e+02,5.500139738480270353e+02,1.927935926362238433e+03,9.446745872497558594e+00,1.529837548732757568e-01,-3.059675097465515137e-01,4.900000000000000000e+01
6.189757260525324227e+02,7.013308331585615178e+02,2.126088200802226311e+03,3.952018419556316076e+03,1.731609327308885895e+02,3.931281924316519962e+02,9.105048368496745752e+02,1.989439246514607703e+03,9.446745872497558594e+00,1.529837548732757568e-01,-3.059675097465515137e-01,5.000000000000000000e+01
6.296075014151481355e+02,7.087941162599486233e+02,2.132989594793696142e+03,4.099653796878022149e+03,1.924733719194629202e+02,3.963364303169731784e+02,-3.831137576503383571e+02,1.945642605219171173e+03,9.446745872497558594e+00,1.529837548732757568e-01,-3.059675097465515137e-01,5.100000000000000000e+01
6.610774411841122173e+02,7.344017773961352304e+02,2.149669547285784120e+03,4.187581281113558362e+03,2.200050075802518563e+02,4.116488849002424786e+02,-1.904917923198378958e+03,1.949186677033782871e+03,9.446745872497558594e+00,1.529837548732757568e-01,-3.059675097465515137e-01,5.200000000000000000e+01
7.670582045793311181e+02,8.413189584948868287e+02,2.251578195817268352e+03,4.182507969974452863e+03,3.082667813516084721e+02,5.093624295388958103e+02,-1.295717567467789195e+03,2.082180485650511400e+03,9.446745872497558594e+00,1.529837548732757568e-01,-3.059675097465515137e-01,5.300000000000000000e+01
9.046081915239623186e+02,9.818588386553121836e+02,2.397259405523614078e+03,4.168735642267740332e+03,4.287560455626650082e+02,6.469831583345892341e+02,-4.813391328705561136e+02,2.247698420638443167e+03,9.446745872497558594e+00,1.529837548732757568e-01,-3.059675097465515137e-01,5.400000000000000000e+01
9.859059968438514261e+02,1.059105355629032829e+03,2.482009670529880168e+03,4.237857417816452653e+03,5.069611331845821951e+02,7.250272997167421636e+02,-2.516228880852690963e+03,2.301657817099588556e+03,9.446745872497558594e+00,1.529837548732757568e-01,-3.059675097465515137e-01,5.500000000000000000e+01
9.916956142253761755e+02,1.057609467841253718e+03,2.478451312239483741e+03,4.370682384866646316e+03,5.189967696256144336e+02,7.204618040271629980e+02,-4.091675020732978737e+03,2.249032241082777091e+03,9.446745872497558594e+00,1.529837548732757568e-01,-3.059675097465515137e-01,5.600000000000000000e+01
1.008782284460025267e+03,1.074719089050060347e+03,2.480503766956252093e+03,4.454522908661434485e+03,5.333183848842460293e+02,7.261869457292868901e+02,8.880557018726835850e+02,2.241649890387305277e+03,9.446745872497558594e+00,1.529837548732757568e-01,-3.059675097465515137e-01,5.700000000000000000e+01
1.105659596526257928e+03,1.181110846185512855e+03,2.571727262525677816e+03,4.442151375489862403e+03,6.142677741670603382e+02,8.179612581990224953e+02,1.063904152971356234e+04,2.366129752216998895e+03,9.523238182067871094e+00,1.529837548732757568e-01,-3.059675097465515137e-01,5.800000000000000000e+01
1.235215647591642664e+03,1.320947711798869932e+03,2.711079390483693714e+03,4.416672530826634102e+03,7.341646795866284947e+02,9.505807505268342084e+02,1.661435517748630809e+04,2.524816210230142133e+03,9.523238182067871094e+00,1.529837548732757568e-01,-3.059675097465515137e-01,5.900000000000000000e+01
1.299468601696954011e+03,1.388057838449022256e+03,2.790457150107146845e+03,4.476375282640690784e+03,8.109370142500609973e+02,1.021311809533179940e+03,1.565300674901207094e+04,2.572057030674837733e+03,9.523238182067871094e+00,1.529837548732757568e-01,-3.059675097465515137e-01,6.000000000000000000e+01
1.287162452721867567e+03,1.372150936908151834e+03,2.783638995553777931e+03,4.598041239367610615e+03,8.211031639427500295e+02,1.011388103533360436e+03,1.295769981102860766e+04,2.516033720678374266e+03,9.523238182067871094e+00,1.529837548732757568e-01,-3.059675097465515137e-01,6.100000000000000000e+01
1.289115008872183807e+03,1.372844198552095122e+03,2.780737802430466218e+03,4.669250271190131571e+03,8.322883830651034032e+02,1.011796302104804113e+03,1.269815751781959443e+04,2.506424519120455898e+03,9.523238182067871094e+00,1.529837548732757568e-01,-3.059675097465515137e-01,6.200000000000000000e+01
1.370712240673977703e+03,1.463902714898034901e+03,2.861823664817528879e+03,4.645317164528900321e+03,9.089824961963169017e+02,1.098604319785075177e+03,1.332949795842690219e+04,2.626489262298047379e+03,9.523238182067871094e+00,1.529837548732757568e-01,-3.059675097465515137e-01,6.300000000000000000e+01
1.483165596147799306e+03,1.594307327943200562e+03,2.985778570490378570e+03,4.611669132401173556e+03,1.022363669166992395e+03,1.228191612961142027e+03,1.282820970766518440e+04,2.778172072575280708e+03,9.523238182067871094e+00,1.529837548732757568e-01,-3.059675097465515137e-01,6.400000000000000000e+01
1.535173242330939729e+03,1.659095319142847075e+03,3.048105752205457520e+03,4.664826813461877464e+03,1.090572354187639121e+03,1.296674677873734254e+03,1.199252843817406756e+04,2.818139170130908497e+03,9.523238182067871094e+00,1.529837548732757568e-01,-3.059675097465515137e-01,6.500000000000000000e+01
1.520291089674425621e+03,1.641977368430997785e+03,3.027013906534675243e+03,4.778512917230385938e+03,1.092894189228755749e+03,1.282980586407260034e+03,1.160430661382086146e+04,2.755392228664552931e+03,9.523238182067871094e+00,1.529837548732757568e-01,-3.059675097465515137e-01,6.600000000000000000e+01
1.524282770076586530e+03,1.636188386975544063e+03,3.014655857345710956e+03,4.840609720824874785e+03,1.097851870928989001e+03,1.277568040894716887e+03,1.104105893847359766e+04,2.737504605840141267e+03,9.523238182067871094e+00,1.529837548732757568e-01,-3.059675097465515137e-01,6.700000000000000000e+01
1.606924142016979658e+03,1.716009344267102733e+03,3.089747603740609975e+03,4.808289909390369758e+03,1.167334040653744296e+03,1.356401440207596352e+03,1.027090606621030383e+04,2.846287331497372179e+03,9.523238182067871094e+00,1.529837548732757568e-01,-3.059675097465515137e-01,6.800000000000000000e+01
1.720742490699218934e+03,1.834743268825645373e+03,3.208187516886895537e+03,4.766766678495832821e+03,1.271516638083563748e+03,1.475875156042685376e+03,1.007163367976660811e+04,2.985871119481897040e+03,9.523238182067871094e+00,1.529837548732757568e-01,-3.059675097465515137e-01,6.900000000000000000e+01
1.774874063936707444e+03,1.889851346956516409e+03,3.263753485304692731e+03,4.811528999427000599e+03,1.331513748753827031e+03,1.534647729871053798e+03,1.018955387087332929e+04,3.016406567202809129e+03,9.523238182067871094e+00,1.529837548732757568e-01,-3.059675097465515137e-01,7.000000000000000000e+01
1.757608816397875671e+03,1.866091415791453528e+03,3.235182707496661806e+03,4.916489284082703307e+03,1.328779278153836913e+03,1.514658657306123814e+03,9.516317975119534822e+03,2.947415885093147153e+03,9.523238182067871094e+00,1.529837548732757568e-01,-3.059675097465515137e-01,7.100000000000000000e+01
1.752873982960670219e+03,1.857434673747137822e+03,3.215744123271792887e+03,4.969806562090454463e+03,1.330186113007835502e+03,1.505206578397867361e+03,8.152682618198756245e+03,2.924295439846463523e+03,9.523238182067871094e+00,1.529837548732757568e-01,-3.059675097465515137e-01,7.200000000000000000e+01
1.826873761929022749e+03,1.936302154192776470e+03,3.284568220110496441e+03,4.928419217293661859e+03,1.395363690905972817e+03,1.578863700428810716e+03,7.571698587656813288e+03,3.027719411426344777e+03,9.523238182067871094e+00,1.529837548732757568e-01,-3.059675097465515137e-01,7.300000000000000000e+01
1.937100189708216703e+03,2.052423074693109811e+03,3.397937307420253092e+03,4.877864128696056468e+03,1.494102155247197970e+03,1.691484188062691373e+03,8.175368065526256942e+03,3.162222600201278965e+03,9.523238182067871094e+00,1.529837548732757568e-01,-3.059675097465515137e-01,7.400000000000000000e+01
1.989280848080255055e+03,2.102478588038596172e+03,3.449887970883922662e+03,4.914205199670040201e+03,1.547440610194330930e+03,1.742998503054644516e+03,8.144421002986735402e+03,3.187215222851378257e+03,9.523238182067871094e+00,1.529837548732757568e-01,-3.059675097465515137e-01,7.500000000000000000e+01
1.967094739952271084e+03,2.073231500021890952e+03,3.417679000435744911e+03,5.011653508404038803e+03,1.536381477710521722e+03,1.715133519658638761e+03,6.314939813826767022e+03,3.110702199628446579e+03,9.523238182067871094e+00,1.529837548732757568e-01,-3.059675097465515137e-01,7.600000000000000000e+01
1.955892715561477416e+03,2.059166535220304013e+03,3.391982477635178839e+03,5.059226255241102990e+03,1.528461114284911218e+03,1.697142541835045904e+03,5.074553811184833648e+03,3.078594944128441057e+03,9.523238182067871094e+00,1.529837548732757568e-01,-3.059675097465515137e-01,7.700000000000000000e+01
2.025173630087891297e+03,2.131453327069270927e+03,3.451563767954544346e+03,5.014261949782659940e+03,1.584972358662685565e+03,1.763506530092849516e+03,7.526002092783277476e+03,3.173364834359201268e+03,9.523238182067871094e+00,1.529837548732757568e-01,-3.059675097465515137e-01,7.800000000000000000e+01
2.131880292324908169e+03,2.240329386137463644e+03,3.555693236742634781e+03,4.959989761527678638e+03,1.676760960243184854e+03,1.871341007553812233e+03,1.228274499367404132e+04,3.300048035629704827e+03,9.523238182067871094e+00,1.147378161549568176e-01,-2.677215635776519775e-01,7.900000000000000000e+01
2.180075695193385855e+03,2.284640130046773720e+03,3.601673825547823526e+03,4.989547194565108839e+03,1.725057615533893113e+03,1.919646836999174639e+03,1.471876112669196118e+04,3.318065786470182502e+03,9.523238182067871094e+00,1.147378161549568176e-01,-2.677215635776519775e-01,8.000000000000000000e+01
2.154481936193439196e+03,2.251236872094600130e+03,3.566913318778338635e+03,5.077786069718695217e+03,1.710563428995672439e+03,1.888848850487882828e+03,1.346172590648139158e+04,3.235975513960983335e+03,9.523238182067871094e+00,1.147378161549568176e-01,-2.677215635776519775e-01,8.100000000000000000e+01
2.140774230665429968e+03,2.231987157734924040e+03,3.538722394097303550e+03,5.116543213451808697e+03,1.699657145590639402e+03,1.867001584049142593e+03,1.168522889123233108e+04,3.198697694691326888e+03,9.523238182067871094e+00,1.147378161549568176e-01,-2.677215635776519775e-01,8.200000000000000000e+01
2.204741652360870830e+03,2.296349616652232271e+03,3.591725685769524262e+03,5.063714968134785522e+03,1.752224709392474324e+03,1.927172493261158252e+03,1.165097946074767242e+04,3.286520334408382951e+03,9.523238182067871094e+00,1.147378161549568176e-01,-2.677215635776519775e-01,8.300000000000000000e+01
2.300787453734982591e+03,2.396139839040643437e+03,3.684176270841577207e+03,5.001402537645736629e+03,1.839099889244936094e+03,2.026932674160383158e+03,1.205541890889718525e+04,3.405197315155041451e+03,9.523238182067871094e+00,1.147378161549568176e-01,-2.677215635776519775e-01,8.400000000000000000e+01
2.336924873205799940e+03,2.433122207808342409e+03,3.716635122057824901e+03,5.023213134115922003e+03,1.882617467461440356e+03,2.068091317503080063e+03,1.143642145756724676e+04,3.417156366819899631e+03,9.523238182067871094e+00,1.147378161549568176e-01,-2.677215635776519775e-01,8.500000000000000000e+01
2.303215151425663862e+03,2.395082208851598807e+03,3.670460242677801489e+03,5.105369876304277568e+03,1.863642722303454320e+03,2.032543222733123912e+03,1.056005735074257427e+04,3.330847282957512562e+03,9.523238182067871094e+00,1.147378161549568176e-01,-2.677215635776519775e-01,8.600000000000000000e+01
2.284699485881224064e+03,2.372483861143160084e+03,3.633891933878981945e+03,5.139773736772043776e+03,1.847444124469567669e+03,2.006889236780241845e+03,1.044664536850830518e+04,3.288176822079635713e+03,9.523238182067871094e+00,1.147378161549568176e-01,-2.677215635776519775e-01,8.700000000000000000e+01
2.343565049492524395e+03,2.433413051875544170e+03,3.680468717315096910e+03,5.083924557809099497e+03,1.893271845002140253e+03,2.062888845852730810e+03,1.062671022397493834e+04,3.368905774942507378e+03,9.523238182067871094e+00,1.147378161549568176e-01,-2.677215635776519775e-01,8.800000000000000000e+01
2.434470095020903955e+03,2.529420055009376028e+03,3.767883993059012482e+03,5.020007192072651378e+03,1.972686705952175998e+03,2.158375490941629323e+03,1.034670051012953081e+04,3.480845624912764833e+03,9.523238182067871094e+00,1.147378161549568176e-01,-2.677215635776519775e-01,8.900000000000000000e+01
2.467458469062823497e+03,2.561757170847377893e+03,3.796088822565304326e+03,5.040752222392586191e+03,2.009343122728604612e+03,2.195150162643643853e+03,9.752107418848578163e+03,3.486989256052711426e+03,9.523238182067871094e+00,1.147378161549568176e-01,-2.677215635776519775e-01,9.000000000000000000e+01
2.430822285189708964e+03,2.517057769442857534e+03,3.744864091672100130e+03,5.120275847258898466e+03,1.985195647456934694e+03,2.154863008910277586e+03,9.337569720749856060e+03,3.395400173950130920e+03,9.523238182067871094e+00,1.147378161549568176e-01,-2.677215635776519775e-01,9.100000000000000000e+01
2.406421157415250036e+03,2.485740526680295261e+03,3.701987402007975561e+03,5.149250139239251439e+03,1.966074487603074886e+03,2.125157928092615293e+03,9.148569280761701521e+03,3.349074882976110985e+03,9.523238182067871094e+00,1.147378161549568176e-01,-2.677215635776519775e-01,9.200000000000000000e+01
2.457088052063403666e+03,2.537568286147159142e+03,3.742896396735089183e+03,5.085757479227769181e+03,2.011009258432822662e+03,2.178869409252032710e+03,8.930142548171934322e+03,3.428136898407078206e+03,9.523238182067871094e+00,1.147378161549568176e-01,-2.677215635776519775e-01,9.300000000000000000e+01
2.540254094076543879e+03,2.625842181503611755e+03,3.826906359263971808e+03,5.013339130084461431e+03,2.090304983861699384e+03,2.272964667533917236e+03,8.683067512788256863e+03,3.538068466986593648e+03,9.523238182067871094e+00,1.147378161549568176e-01,-2.677215635776519775e-01,9.400000000000000000e+01
2.566942146709913686e+03,2.652573138029929851e+03,3.853165133097652415e+03,5.026132815347378710e+03,2.125670739026249521e+03,2.307554383059062275e+03,8.655466267015292033e+03,3.540091974355422735e+03,9.523238182067871094e+00,1.147378161549568176e-01,-2.677215635776519775e-01,9.500000000000000000e+01
2.525653211058624038e+03,2.604449106371866037e+03,3.799770618675029255e+03,5.099345395825284868e+03,2.097704157211261190e+03,2.263574571751237727e+03,8.788372524741618690e+03,3.443288015017511952e+03,9.523238182067871094e+00,1.147378161549568176e-01,-2.677215635776519775e-01,9.600000000000000000e+01
2.499109096146117736e+03,2.571312608930557872e+03,3.753634143605174813e+03,5.123782675110860509e+03,2.072575622331634349e+03,2.228488705262519943e+03,8.705171117764119117e+03,3.391715692489164212e+03,9.523238182067871094e+00,1.147378161549568176e-01,-2.677215635776519775e-01,9.700000000000000000e+01
2.549609355378056989e+03,2.622041817688190349e+03,3.789610828032342852e+03,5.056712585625657994e+03,2.110618772423573319e+03,2.274811562810876239e+03,8.438503143108697259e+03,3.464890806064645403e+03,9.523238182067871094e+00,1.147378161549568176e-01,-2.677215635776519775e-01,9.800000000000000000e+01
2.632393254024376802e+03,2.709609168604223214e+03,3.866799754490920350e+03,4.980363962689070831e+03,2.182943029908138669e+03,2.359934826966493347e+03,8.397177915191594366e+03,3.568147642676142368e+03,9.523238182067871094e+00,1.147378161549568176e-01,-2.677215635776519775e-01,9.900000000000000000e+01
2.657562463532535730e+03,2.735884697538762339e+03,3.885894162248590419e+03,4.987285462531956000e+03,2.211936155022585353e+03,2.385799104187113699e+03,8.426813075661706534e+03,3.563959316352631504e+03,9.523238182067871094e+00,1.147378161549568176e-01,-2.677215635776519775e-01,1.000000000000000000e+02
2.614220700347469574e+03,2.686650464647150784e+03,3.827590534287519404e+03,5.052254165154888142e+03,2.179458219069675579e+03,2.335371008612729383e+03,8.077088990376782021e+03,3.462086025508704552e+03,9.523238182067871094e+00,1.147378161549568176e-01,-2.677215635776519775e-01,1.010000000000000000e+02
2.584814339689275585e+03,2.650939499588534545e+03,3.779606780803575930e+03,5.068763902238168157e+03,2.151816569675693245e+03,2.296503909625852430e+03,7.946152947721408054e+03,3.405787043975673441e+03,9.523238182067871094e+00,1.147378161549568176e-01,-2.677215635776519775e-01,1.020000000000000000e+02
2.630840979993035944e+03,2.697944929888266415e+03,3.815100307157722455e+03,4.998022814025123807e+03,2.187311023535691675e+03,2.340398775691527590e+03,9.154289832798036514e+03,3.473832999091157490e+03,9.523238182067871094e+00,1.147378161549568176e-01,-2.677215635776519775e-01,1.030000000000000000e+02
2.708049695743029133e+03,2.781134974936387607e+03,3.891055876284557598e+03,4.922445858338261132e+03,2.255890154033739691e+03,2.423368636446916298e+03,1.127011230051108032e+04,3.572285477937025462e+03,9.484992027282714844e+00,1.912296712398529053e-01,-4.207052886486053467e-01,1.040000000000000000e+02
2.727423404368305455e+03,2.802584624823337435e+03,3.906932133080844778e+03,4.930436001446383671e+03,2.281576508071583703e+03,2.447408043990840724e+03,1.255117552475687444e+04,3.565139396672229850e+03,9.484992027282714844e+00,1.912296712398529053e-01,-4.207052886486053467e-01,1.050000000000000000e+02
2.677817606363903906e+03,2.748823282612618641e+03,3.842789975117427275e+03,4.993735274706562450e+03,2.247043056083833108e+03,2.395181040016289444e+03,1.244282089705294129e+04,3.462349562620859160e+03,9.484992027282714844e+00,1.912296712398529053e-01,-4.207052886486053467e-01,1.060000000000000000e+02
2.641300249744809662e+03,2.709054438048495285e+03,3.786615202686328303e+03,5.006730670749759156e+03,2.216160207025502586e+03,2.353425952665888417e+03,1.204196752006623501e+04,3.405293431086880901e+03,9.484992027282714844e+00,1.912296712398529053e-01,-4.207052886486053467e-01,1.070000000000000000e+02
2.679911879086783756e+03,2.750598602106375893e+03,3.813214038056350546e+03,4.931794541386163473e+03,2.245687418793570941e+03,2.393562769026848855e+03,1.203935491591833124e+04,3.471196883966508267e+03,9.484992027282714844e+00,1.912296712398529053e-01,-4.207052886486053467e-01,1.080000000000000000e+02
2.750165080260871491e+03,2.825743557374958527e+03,3.881552519049681905e+03,4.850429349267374164e+03,2.307993509981324678e+03,2.473805431272811347e+03,1.200033989089200622e+04,3.567121415607307881e+03,9.484992027282714844e+00,1.912296712398529053e-01,-4.207052886486053467e-01,1.090000000000000000e+02
2.763551199609112700e+03,2.838869942914373041e+03,3.892070709524552058e+03,4.851373243408326744e+03,2.329639420118129692e+03,2.496900164939511797e+03,1.174206875921790925e+04,3.558727789282441790e+03,9.484992027282714844e+00,1.912296712398529053e-01,-4.207052886486053467e-01,1.100000000000000000e+02
2.709270513631724498e+03,2.779013526568074212e+03,3.824667037505739700e+03,4.909410993873908410e+03,2.292591291279134111e+03,2.444205681734445534e+03,1.168665025029919343e+04,3.455325065292801355e+03,9.484992027282714844e+00,1.912296712398529053e-01,-4.207052886486053467e-01,1.110000000000000000e+02
2.669193364048827789e+03,2.734483179718304200e+03,3.766235464147679522e+03,4.920115937182597918e+03,2.259304548048344714e+03,2.401157631328563639e+03,1.182900685249051458e+04,3.396305619097382078e+03,9.484992027282714844e+00,1.912296712398529053e-01,-4.207052886486053467e-01,1.120000000000000000e+02
2.704775256282654482e+03,2.771279413816261240e+03,3.790030203680223167e+03,4.842979042370763636e+03,2.286620475895652817e+03,2.438138704685625271e+03,1.171141698218587590e+04,3.458330361668277874e+03,9.484992027282714844e+00,1.912296712398529053e-01,-4.207052886486053467e-01,1.130000000000000000e+02
2.772536481678724613e+03,2.843044175160933264e+03,3.854576101422696865e+03,4.757483072420352983e+03,2.346858749554711721e+03,2.511902519771744210e+03,1.136363903069119806e+04,3.549349629643361368e+03,9.484992027282714844e+00,1.912296712398529053e-01,-4.207052886486053467e-01,1.140000000000000000e+02
2.784417716293659396e+03,2.855183268577724448e+03,3.861737921450246631e+03,4.754144479585018416e+03,2.366009161218112240e+03,2.525831093740248889e+03,1.123433001993894140e+04,3.535991805396216478e+03,9.484992027282714844e+00,1.912296712398529053e-01,-4.207052886486053467e-01,1.150000000000000000e+02
2.729594869307560657e+03,2.794956118316518769e+03,3.792820384542701504e+03,4.808837939438747526e+03,2.326611974165049105e+03,2.465290268740945976e+03,1.135930329800047366e+04,3.428367039647513138e+03,9.484992027282714844e+00,1.912296712398529053e-01,-4.207052886486053467e-01,1.160000000000000000e+02
2.689597992833256285e+03,2.748965274862472143e+03,3.734311771377784680e+03,4.814997647210420837e+03,2.291965868395361213e+03,2.418141412978101016e+03,1.137086636535028993e+04,3.366003006139271747e+03,9.484992027282714844e+00,1.912296712398529053e-01,-4.207052886486053467e-01,1.170000000000000000e+02
2.725420162631953644e+03,2.783463749808864122e+03,3.758077658962479290e+03,4.731570747479209786e+03,2.317909023412907118e+03,2.452338754049661929e+03,1.114737811115361183e+04,3.424360871304899774e+03,9.484992027282714844e+00,1.912296712398529053e-01,-4.207052886486053467e-01,1.180000000000000000e+02
2.792430295951658991e+03,2.852465039707156848e+03,3.821560390800194455e+03,4.641356582061492190e+03,2.375101302469072380e+03,2.522633073386492015e+03,1.090842222328660682e+04,3.510605084470037582e+03,9.484992027282714844e+00,1.912296712398529053e-01,-4.207052886486053467e-01,1.190000000000000000e+02
2.801531401856484081e+03,2.861497559995854317e+03,3.826066237377928701e+03,4.636654371174487096e+03,2.389692683940783809e+03,2.534831793424251373e+03,1.082645246893572039e+04,3.493021206849502050e+03,9.484992027282714844e+00,1.912296712398529053e-01,-4.207052886486053467e-01,1.200000000000000000e+02
2.742569942542500939e+03,2.798852943143986067e+03,3.753343729927065851e+03,4.690961638838278304e+03,2.345792701856309122e+03,2.475567752234891032e+03,1.086117223228473813e+04,3.383580657587473070e+03,9.484992027282714844e+00,1.912296712398529053e-01,-4.207052886486053467e-01,1.210000000000000000e+02
2.698384894405688556e+03,2.751418781799031422e+03,3.691122624517982331e+03,4.696112412805405256e+03,2.307720070414854490e+03,2.428593237432490241e+03,1.085666051078339297e+04,3.320414718063092550e+03,9.484992027282714844e+00,1.912296712398529053e-01,-4.207052886486053467e-01,1.220000000000000000e+02
2.729809308065957339e+03,2.783252330885340598e+03,3.711348592242949508e+03,4.612393345335422964e+03,2.331304263710177111e+03,2.458805987019230997e+03,1.069809090605368692e+04,3.376317559855425316e+03,9.484992027282714844e+00,1.912296712398529053e-01,-4.207052886486053467e-01,1.230000000000000000e+02
2.791735184709182704e+03,2.846269530579432740e+03,3.770426992651585351e+03,4.522483843698351848e+03,2.387027787825795713e+03,2.524452264081001431e+03,1.045562927482320265e+04,3.459302407349133318e+03,9.484992027282714844e+00,1.912296712398529053e-01,-4.207052886486053467e-01,1.240000000000000000e+02
2.796182186616698345e+03,2.847181191390590357e+03,3.770404287397936969e+03,4.516269580938193940e+03,2.401210283576935581e+03,2.535466102397413579e+03,1.033048118353632890e+04,3.440976832857009867e+03,9.484992027282714844e+00,1.912296712398529053e-01,-4.207052886486053467e-01,1.250000000000000000e+02
2.733916557584326256e+03,2.777807223974496083e+03,3.694847285664734954e+03,4.567593986335767113e+03,2.357553851451310493e+03,2.476854503746505998e+03,1.037594397412417311e+04,3.333324421152162358e+03,9.484992027282714844e+00,1.912296712398529053e-01,-4.207052886486053467e-01,1.260000000000000000e+02
2.686576434156801042e+03,2.727738937652131426e+03,3.630175747909975144e+03,4.571897971656588197e+03,2.318395094665696888e+03,2.429216280544385882e+03,1.039647407797058622e+04,3.270577140647542365e+03,9.484992027282714844e+00,1.912296712398529053e-01,-4.207052886486053467e-01,1.270000000000000000e+02
2.713941242407571281e+03,2.761011506200005442e+03,3.645585946127278476e+03,4.490568421579686401e+03,2.338022059948301830e+03,2.458210791728472941e+03,1.022504778375125534e+04,3.323650116326411080e+03,9.484992027282714844e+00,1.912296712398529053e-01,-4.207052886486053467e-01,1.280000000000000000e+02
2.772128028274309145e+03,2.827400054195374651e+03,3.699557144996526404e+03,4.403115793265388675e+03,2.388919790203059165e+03,2.523391467395587370e+03,9.969041337236729305e+03,3.403055880579294353e+03,9.484992027282714844e+00,1.912296712398529053e-01,-4.207052886486053467e-01,1.290000000000000000e+02
2.774711521782503951e+03,2.831753491312071674e+03,3.699133514960249158e+03,4.396539551753719934e+03,2.400856758579274810e+03,2.532793992018186145e+03,9.854534721161098787e+03,3.382363039478987957e+03,9.484992027282714844e+00,1.912296712398529053e-01,-4.207052886486053467e-01,1.300000000000000000e+02
2.712542300228526528e+03,2.765180792967263187e+03,3.627470712981734323e+03,4.444774627918890474e+03,2.357159715945310836e+03,2.470306372453928816e+03,9.905644548483251128e+03,3.271999536764631557e+03,9.484992027282714844e+00,1.147378161549568176e-01,-4.207052886486053467e-01,1.310000000000000000e+02
2.666870014185284163e+03,2.715716905455007691e+03,3.565692553733837030e+03,4.444631613206226575e+03,2.316930451675920267e+03,2.418954774916534461e+03,9.917494766828955107e+03,3.205132945966712214e+03,9.484992027282714844e+00,1.147378161549568176e-01,-4.207052886486053467e-01,1.320000000000000000e+02
2.696755056006083578e+03,2.744812398423864579e+03,3.581175951177026946e+03,4.358611681048250830e+03,2.334121346674723100e+03,2.445394474406921290e+03,9.746062720803000047e+03,3.254825978092788318e+03,9.484992027282714844e+00,1.147378161549568176e-01,-4.207052886486053467e-01,1.330000000000000000e+02
2.756368525688962563e+03,2.802338478307119203e+03,3.634760971665167290e+03,4.266899587739130766e+03,2.383434767941592327e+03,2.506353647059526338e+03,9.497264107594801317e+03,3.332970743451027374e+03,9.484992027282714844e+00,1.147378161549568176e-01,-4.207052886486053467e-01,1.340000000000000000e+02
2.757918806284364109e+03,2.797082796031804719e+03,3.633648235305895469e+03,4.256439604199844325e+03,2.394157504792555756e+03,2.509175469744069687e+03,9.384258865466694260e+03,3.311010414239841793e+03,9.484992027282714844e+00,1.147378161549568176e-01,-4.207052886486053467e-01,1.350000000000000000e+02
2.693517464353391006e+03,2.723757697527732944e+03,3.558967890219587844e+03,4.300912918062995232e+03,2.347110931798501497e+03,2.441619106532410115e+03,9.432413005921891454e+03,3.197718016162563799e+03,9.484992027282714844e+00,1.147378161549568176e-01,-4.207052886486053467e-01,1.360000000000000000e+02
2.646145808516059333e+03,2.671288055212468862e+03,3.492636611468892625e+03,4.297820680138118405e+03,2.301767510896382191e+03,2.388577936522967320e+03,9.444376874923387732e+03,3.127835628447125600e+03,9.484992027282714844e+00,1.147378161549568176e-01,-4.207052886486053467e-01,1.370000000000000000e+02
2.674571724318484485e+03,2.701321583190151159e+03,3.504640643221160644e+03,4.210398979404089005e+03,2.314498845870631158e+03,2.413694296141823088e+03,9.273157518500382139e+03,3.175407484409221070e+03,9.484992027282714844e+00,1.147378161549568176e-01,-4.207052886486053467e-01,1.380000000000000000e+02
2.732448703259527065e+03,2.763228843928628521e+03,3.556109329152192004e+03,4.117832691464720483e+03,2.360562153194414350e+03,2.471918221627129697e+03,9.025037146479317016e+03,3.250472390631566668e+03,9.484992027282714844e+00,1.147378161549568176e-01,-4.207052886486053467e-01,1.390000000000000000e+02
2.732695553064253545e+03,2.762244003021564367e+03,3.553320490685742698e+03,4.105566716338745209e+03,2.369074051836103081e+03,2.472690759380528561e+03,8.912276151791331358e+03,3.224118208909566874e+03,9.484992027282714844e+00,1.147378161549568176e-01,-4.207052886486053467e-01,1.400000000000000000e+02
2.666713850612342867e+03,2.688652763430286541e+03,3.477801440169023408e+03,4.148033725937772033e+03,2.322290394894911969e+03,2.404569438738801637e+03,8.959978074822531198e+03,3.108432308599417411e+03,9.484992027282714844e+00,1.147378161549568176e-01,-4.207052886486053467e-01,1.410000000000000000e+02
2.614694712013246772e+03,2.631024284970846111e+03,3.411529261839048559e+03,4.144862755124989235e+03,2.280098166594134454e+03,2.350509972905432278e+03,8.972126298347999182e+03,3.040138507673988443e+03,9.484992027282714844e+00,1.147378161549568176e-01,-4.207052886486053467e-01,1.420000000000000000e+02
2.635113046420136470e+03,2.654560138774739244e+03,3.422851995039648500e+03,4.059334196120569686e+03,2.296103999615253997e+03,2.374299808233430213e+03,8.802606691917002536e+03,3.090854315087069153e+03,9.484992027282714844e+00,1.147378161549568176e-01,-4.207052886486053467e-01,1.430000000000000000e+02
2.685784567672407775e+03,2.711942597621921323e+03,3.471738075717908032e+03,3.968409005976589924e+03,2.342760167164678933e+03,2.433340142453355384e+03,8.556646715845097788e+03,3.168136242548128394e+03,9.484992027282714844e+00,1.147378161549568176e-01,-4.207052886486053467e-01,1.440000000000000000e+02
2.683312751675905020e+03,2.709785130919397943e+03,3.464945477340913385e+03,3.956425387985772431e+03,2.349096948949611942e+03,2.436863990558789283e+03,8.445250850002819789e+03,3.143813898387261816e+03,9.484992027282714844e+00,1.147378161549568176e-01,-4.207052886486053467e-01,1.450000000000000000e+02
2.618284255464609487e+03,2.637929988646679249e+03,3.384759397551125403e+03,3.999083233627530717e+03,2.298632943071211230e+03,2.370706814033235787e+03,8.493900798432227020e+03,3.030639592925444958e+03,9.484992027282714844e+00,1.147378161549568176e-01,-4.207052886486053467e-01,1.460000000000000000e+02
2.567914933605831720e+03,2.581952213037927322e+03,3.313913613507152149e+03,3.997238460415789632e+03,2.252640535179863036e+03,2.317152311192932302e+03,8.507740654116556470e+03,2.963390485080809412e+03,9.484992027282714844e+00,1.147378161549568176e-01,-4.207052886486053467e-01,1.470000000000000000e+02
2.588829560042889625e+03,2.603076592686817548e+03,3.322150390065595275e+03,3.913897537682698385e+03,2.266420970460774697e+03,2.341240490492204572e+03,8.340991479119080395e+03,3.012366738953414369e+03,9.484992027282714844e+00,1.147378161549568176e-01,-4.207052886486053467e-01,1.480000000000000000e+02
2.637989120061345602e+03,2.653714773090611288e+03,3.370323538664953048e+03,3.825527544842767384e+03,2.312898987944404325e+03,2.400155302651784496e+03,8.098174750601152482e+03,3.086900458784500643e+03,9.484992027282714844e+00,1.147378161549568176e-01,-4.207052886486053467e-01,1.490000000000000000e+02
2.631761374808390428e+03,2.645164739041728808e+03,3.364349607644749995e+03,3.816293948476509286e+03,2.319063545129983140e+03,2.402091817175856704e+03,7.989103224580045207e+03,3.060678240507199916e+03,9.484992027282714844e+00,1.147378161549568176e-01,-4.207052886486053467e-01,1.500000000000000000e+02
2.562048334090666685e+03,2.572047896468026465e+03,3.285024233125234787e+03,3.861012738433530103e+03,2.266285090227694127e+03,2.333524999427804687e+03,8.038456762211899331e+03,2.945420565729369628e+03,9.484992027282714844e+00,1.147378161549568176e-01,-4.207052886486053467e-01,1.510000000000000000e+02
2.508137048815040544e+03,2.520396410087034837e+03,3.214285090333078188e+03,3.859439415893987643e+03,2.216005033103279857e+03,2.277906181212846150e+03,8.052029351634624618e+03,2.873944532756387161e+03,9.484992027282714844e+00,1.147378161549568176e-01,-4.207052886486053467e-01,1.520000000000000000e+02
2.527426039949889855e+03,2.548512390899821185e+03,3.221441451612875426e+03,3.775013591694056231e+03,2.224496592631690874e+03,2.299898168175555384e+03,7.885608567376677456e+03,2.916906743447496410e+03,9.484992027282714844e+00,1.147378161549568176e-01,-4.207052886486053467e-01,1.530000000000000000e+02
2.576688115912383182e+03,2.605496875441968314e+03,3.266976254324147703e+03,3.685604216534667103e+03,2.264989415154168455e+03,2.356036101704006796e+03,7.643965510206131512e+03,2.986256189399437972e+03,9.484992027282714844e+00,1.147378161549568176e-01,-4.207052886486053467e-01,1.540000000000000000e+02
2.572629218714568651e+03,2.600063016999580213e+03,3.257394828822554700e+03,3.675581211817212534e+03,2.265794208755200998e+03,2.355358025022260335e+03,7.535579170359940690e+03,2.958158969544708270e+03,9.484992027282714844e+00,1.147378161549568176e-01,-4.207052886486053467e-01,1.550000000000000000e+02
2.506991609303534460e+03,2.525261120595564080e+03,3.175360325015995841e+03,3.718785615713293737e+03,2.210939880768188232e+03,2.285347573005893537e+03,7.584835145861303317e+03,2.844751317944289895e+03,9.484992027282714844e+00,1.147378161549568176e-01,-4.207052886486053467e-01,1.560000000000000000e+02
2.456659370396017948e+03,2.467664835354567458e+03,3.104326031956247789e+03,3.714536211906855897e+03,2.162632239459018820e+03,2.228733489766515049e+03,7.599104776642901925e+03,2.777024960784091490e+03,9.484992027282714844e+00,1.147378161549568176e-01,-4.207052886486053467e-01,1.570000000000000000e+02
2.476041107788897079e+03,2.488517260189391891e+03,3.113167620832467037e+03,3.626708413244277381e+03,2.174740087016578400e+03,2.248661498906330053e+03,7.435191354770218823e+03,2.823238665946135825e+03,9.484992027282714844e+00,1.147378161549568176e-01,-4.207052886486053467e-01,1.580000000000000000e+02
2.521689172291022714e+03,2.540274557018172800e+03,3.161027833676086630e+03,3.533770926333908392e+03,2.217982227971762768e+03,2.301495594691058159e+03,7.197409314340186029e+03,2.894142221936116584e+03,9.484992027282714844e+00,1.147378161549568176e-01,-4.207052886486053467e-01,1.590000000000000000e+02
2.513177809270235230e+03,2.533042425995383383e+03,3.154391101397475722e+03,3.520778643593704601e+03,2.220280795402472904e+03,2.297463275217502996e+03,7.094056950592617795e+03,2.865677927259027456e+03,9.484992027282714844e+00,1.147378161549568176e-01,-4.207052886486053467e-01,1.600000000000000000e+02
2.445311254779941919e+03,2.459070485715151335e+03,3.076539521767404949e+03,3.562220850934987993e+03,2.165978924710413594e+03,2.224853807996808428e+03,7.149405742438295420e+03,2.749898945017366259e+03,9.484992027282714844e+00,1.147378161549568176e-01,-4.207052886486053467e-01,1.610000000000000000e+02
2.395836266889638864e+03,2.403510388557519946e+03,3.009382529142093517e+03,3.557495438765613471e+03,2.116891447481877549e+03,2.166279553356188899e+03,7.169124600741899485e+03,2.678772656668729269e+03,9.484992027282714844e+00,1.147378161549568176e-01,-2.677215635776519775e-01,1.620000000000000000e+02
2.417886396616469483e+03,2.426634136429186583e+03,3.018551497706584087e+03,3.470092565394989833e+03,2.126573332492355803e+03,2.184903067375781575e+03,7.008519471644047371e+03,2.722883327139809808e+03,9.484992027282714844e+00,1.147378161549568176e-01,-2.677215635776519775e-01,1.630000000000000000e+02
2.465977588826984174e+03,2.479967468750156513e+03,3.062199431118550820e+03,3.378006943105830032e+03,2.166553389440357023e+03,2.237548543681790761e+03,6.773152316563853674e+03,2.794007803847309788e+03,9.484992027282714844e+00,1.147378161549568176e-01,-2.677215635776519775e-01,1.640000000000000000e+02
2.457804281732433537e+03,2.472180580424574146e+03,3.049273511150074228e+03,3.365440937528936047e+03,2.166476323163557026e+03,2.234368831362350647e+03,6.672669037217943696e+03,2.766470211454282889e+03,9.484992027282714844e+00,1.147378161549568176e-01,-2.677215635776519775e-01,1.650000000000000000e+02
2.386926977281400013e+03,2.394415403179875284e+03,2.965867307087803965e+03,3.405900525694353746e+03,2.112046321163182256e+03,2.162858043094665845e+03,6.729697656650216231e+03,2.651058832309396166e+03,9.484992027282714844e+00,1.147378161549568176e-01,-2.677215635776519775e-01,1.660000000000000000e+02
2.331628339188801419e+03,2.332612194187349814e+03,2.895117361666762918e+03,3.398968655048039182e+03,2.064531348849553069e+03,2.105016933408055593e+03,6.748666578980695704e+03,2.580488505756848099e+03,9.484992027282714844e+00,1.147378161549568176e-01,-2.677215635776519775e-01,1.670000000000000000e+02
2.348044848390815332e+03,2.349618739793858822e+03,2.903255462476518005e+03,3.309523849347874602e+03,2.075438060148908335e+03,2.124010172288703416e+03,6.587471464968863074e+03,2.625328886705770856e+03,9.484992027282714844e+00,1.147378161549568176e-01,-2.677215635776519775e-01,1.680000000000000000e+02
2.393817463115489318e+03,2.398832583096090275e+03,2.948431976585285156e+03,3.216360137406526519e+03,2.115325717778214312e+03,2.177096187589221699e+03,6.353836923845867204e+03,2.695981483526797092e+03,9.484992027282714844e+00,1.147378161549568176e-01,-2.677215635776519775e-01,1.690000000000000000e+02
2.386220159640847214e+03,2.388176483105695752e+03,2.937972819847695973e+03,3.203338606251792953e+03,2.114736611363300653e+03,2.175102586902918119e+03,6.255227837801598071e+03,2.667781264641598682e+03,9.484992027282714844e+00,1.147378161549568176e-01,-2.677215635776519775e-01,1.700000000000000000e+02
2.315223407365581807e+03,2.306991167256173867e+03,2.855991523750208216e+03,3.244102182839972556e+03,2.059943130890275825e+03,2.105661677563473859e+03,6.312542632687460355e+03,2.554572030489727695e+03,9.484992027282714844e+00,1.147378161549568176e-01,-2.677215635776519775e-01,1.710000000000000000e+02
2.256863945432278342e+03,2.241329246925812640e+03,2.785344421240777592e+03,3.239474156013062384e+03,2.011794823863914189e+03,2.049764734119199602e+03,6.333260764413082143e+03,2.488522513167611123e+03,9.484992027282714844e+00,1.147378161549568176e-01,-2.677215635776519775e-01,1.720000000000000000e+02
2.268593304291428922e+03,2.256232747901008679e+03,2.792886735368972040e+03,3.154928288091049581e+03,2.021908680008300507e+03,2.069577127763881890e+03,6.177883953749014836e+03,2.535682787091104728e+03,9.484992027282714844e+00,1.147378161549568176e-01,-2.677215635776519775e-01,1.730000000000000000e+02
2.310393912177913535e+03,2.306980743871410596e+03,2.836435144528911223e+03,3.067922364950036354e+03,2.060736521372242805e+03,2.122596907495904361e+03,5.951035974461446131e+03,2.604434820794590451e+03,9.484992027282714844e+00,1.147378161549568176e-01,-2.677215635776519775e-01,1.740000000000000000e+02
2.300610794866298420e+03,2.301871928970479985e+03,2.822799795129987615e+03,3.060262561538573209e+03,2.057010758647000330e+03,2.119991951137559226e+03,5.855919870032112158e+03,2.572378939878196434e+03,9.484992027282714844e+00,1.147378161549568176e-01,-2.677215635776519775e-01,1.750000000000000000e+02
2.229691176903758787e+03,2.229465611070938849e+03,2.737068672281407089e+03,3.104656459462454222e+03,1.996221056101830982e+03,2.048732369023066894e+03,5.913992181699893081e+03,2.454975723285607273e+03,9.484992027282714844e+00,1.147378161549568176e-01,-2.677215635776519775e-01,1.760000000000000000e+02
2.173932148464410147e+03,2.173180910008810770e+03,2.663623560339162395e+03,3.102036013980151438e+03,1.942113087616663961e+03,1.989726379816303051e+03,5.935692977933148541e+03,2.384305827738513472e+03,9.484992027282714844e+00,1.147378161549568176e-01,-2.677215635776519775e-01,1.770000000000000000e+02
2.189453567193811978e+03,2.193185202161187590e+03,2.669498826640859079e+03,3.017692508647402974e+03,1.949422394494186392e+03,2.006784202196682145e+03,5.782098733241900845e+03,2.428478944355661042e+03,9.484992027282714844e+00,1.147378161549568176e-01,-2.677215635776519775e-01,1.780000000000000000e+02
2.233480862485413127e+03,2.241186497213368057e+03,2.712188032172729891e+03,2.928647882467446834e+03,1.988385040084872799e+03,2.058861089290604468e+03,5.556985974279940820e+03,2.499070101994077959e+03,9.484992027282714844e+00,1.147378161549568176e-01,-2.677215635776519775e-01,1.790000000000000000e+02
2.223118340660435024e+03,2.227464772290163637e+03,2.699835140499967110e+03,2.917475652492710651e+03,1.986911044669011517e+03,2.056794913407734839e+03,5.464102440812725945e+03,2.472695275254605349e+03,9.484992027282714844e+00,1.147378161549568176e-01,-2.677215635776519775e-01,1.800000000000000000e+02
2.151092877140931705e+03,2.146212454829052149e+03,2.619311878180350050e+03,2.958784279097422768e+03,1.930995308393606592e+03,1.986420529353161783e+03,5.525999991849481376e+03,2.360035584487113738e+03,9.484992027282714844e+00,1.147378161549568176e-01,-2.677215635776519775e-01,1.810000000000000000e+02
2.097242379871404864e+03,2.084278987791790314e+03,2.553368542594756036e+03,2.954484445842919740e+03,1.882558562824644014e+03,1.927534604898646194e+03,5.552993124210238420e+03,2.290254183109653241e+03,9.484992027282714844e+00,1.147378161549568176e-01,-2.677215635776519775e-01,1.820000000000000000e+02
2.118085925994601894e+03,2.102000596623646743e+03,2.564156928062213865e+03,2.869370319917433335e+03,1.891847575735550436e+03,1.942827810701511225e+03,5.405348297998058115e+03,2.332289248386977306e+03,9.523238182067871094e+00,1.529837548732757568e-01,-3.442134261131286621e-01,1.830000000000000000e+02
2.167144966648426816e+03,2.151511046792088109e+03,2.606647783459899983e+03,2.780186767970231813e+03,1.927993947677842243e+03,1.991139079298309298e+03,5.186165618645713039e+03,2.399578088617945468e+03,9.523238182067871094e+00,1.529837548732757568e-01,-3.442134261131286621e-01,1.840000000000000000e+02
2.158070390888162365e+03,2.143811278946584935e+03,2.591648259859334757e+03,2.769750547501836991e+03,1.922500836494542455e+03,1.984753557699582416e+03,5.098296862473131114e+03,2.370182404402091379e+03,9.523238182067871094e+00,1.529837548732757568e-01,-3.442134261131286621e-01,1.850000000000000000e+02
2.084248263966680497e+03,2.070629681687412813e+03,2.509439048860022922e+03,2.811946068933133574e+03,1.863682431629108578e+03,1.910798571852072200e+03,5.163358866400702027e+03,2.256066024854914303e+03,9.523238182067871094e+00,1.529837548732757568e-01,-3.442134261131286621e-01,1.860000000000000000e+02
2.028135295968321316e+03,2.013872604711101758e+03,2.443111669959656410e+03,2.807623768869018022e+03,1.812822071473354299e+03,1.849199093183035984e+03,5.191822689929052103e+03,2.186719721051939359e+03,9.523238182067871094e+00,1.529837548732757568e-01,-3.442134261131286621e-01,1.870000000000000000e+02
2.046847452945782152e+03,2.031399925075489591e+03,2.454801134375423317e+03,2.722215848419612939e+03,1.821070029355632869e+03,1.862859091609011557e+03,5.045375727945155631e+03,2.229874671402352760e+03,9.523238182067871094e+00,1.529837548732757568e-01,-3.442134261131286621e-01,1.880000000000000000e+02
2.093567600097896957e+03,2.076960334232587229e+03,2.501139696912366162e+03,2.633548198277519077e+03,1.860130990863720854e+03,1.911042515650600762e+03,4.828390915073518954e+03,2.297662281244874066e+03,9.523238182067871094e+00,1.529837548732757568e-01,-3.442134261131286621e-01,1.890000000000000000e+02
2.083351502684287425e+03,2.064180377847226282e+03,2.492238329200997214e+03,2.623368358300163436e+03,1.860909036846212985e+03,1.905463371487585391e+03,4.743540488660410119e+03,2.268220801067266621e+03,9.523238182067871094e+00,1.529837548732757568e-01,-3.442134261131286621e-01,1.900000000000000000e+02
2.010111305198241098e+03,1.986047273048997340e+03,2.413525751614896308e+03,2.664172420436982520e+03,1.807911727849573708e+03,1.832704160729544583e+03,4.811375513292260621e+03,2.154648714034679870e+03,9.523238182067871094e+00,1.529837548732757568e-01,-3.442134261131286621e-01,1.910000000000000000e+02
1.953049817818181509e+03,1.924727960848555540e+03,2.345086981256195486e+03,2.658386891389011453e+03,1.760184656991106749e+03,1.773529122970604021e+03,4.842149469586885061e+03,2.087266703389702343e+03,9.523238182067871094e+00,1.529837548732757568e-01,-3.442134261131286621e-01,1.920000000000000000e+02
1.967214534656181513e+03,1.938409048848316615e+03,2.352028718940786348e+03,2.573861968079198959e+03,1.769427333561540763e+03,1.790920170626214258e+03,4.698434425134018966e+03,2.133243119661097808e+03,9.523238182067871094e+00,1.529837548732757568e-01,-3.442134261131286621e-01,1.930000000000000000e+02
2.010365227384720583e+03,1.981704390833155230e+03,2.395173429026055146e+03,2.487616681583670470e+03,1.807994504267820957e+03,1.841779021127254964e+03,4.484828912627628597e+03,2.203017196317410708e+03,9.523238182067871094e+00,1.529837548732757568e-01,-3.442134261131286621e-01,1.940000000000000000e+02
2.003042546857102025e+03,1.969024870384082988e+03,2.385127586940365745e+03,2.479021050232216112e+03,1.806827746853048211e+03,1.836048097014752784e+03,4.402991364730828536e+03,2.173803286827467218e+03,9.523238182067871094e+00,1.529837548732757568e-01,-3.442134261131286621e-01,1.950000000000000000e+02
1.936531775658123024e+03,1.892773710464821761e+03,2.306297927903123764e+03,2.520682742052274534e+03,1.751157508395939203e+03,1.761451791518679329e+03,4.473213393213672134e+03,2.059542751815255542e+03,9.523238182067871094e+00,1.529837548732757568e-01,-3.442134261131286621e-01,1.960000000000000000e+02
1.882762449539261979e+03,1.833712408334633892e+03,2.238878585371073768e+03,2.516559567717637037e+03,1.701032529692638036e+03,1.700093084965853905e+03,4.507285912201728934e+03,1.991298618693870139e+03,9.523238182067871094e+00,1.529837548732757568e-01,-3.442134261131286621e-01,1.970000000000000000e+02
1.895113262172924806e+03,1.849962419183019847e+03,2.247268182620908192e+03,2.434360332563210250e+03,1.707846363627544633e+03,1.714713882234209905e+03,4.368933414116919266e+03,2.035429012273548778e+03,9.523238182067871094e+00,1.529837548732757568e-01,-3.442134261131286621e-01,1.980000000000000000e+02
1.934991311731361748e+03,1.897242714947712102e+03,2.290008776300974660e+03,2.350667409770208906e+03,1.742658606741768835e+03,1.763130567103766225e+03,4.161561025767483443e+03,2.102153513736529021e+03,9.523238182067871094e+00,1.529837548732757568e-01,-3.442134261131286621e-01,1.990000000000000000e+02
1.924003742815744090e+03,1.889822269297781531e+03,2.277089169925443002e+03,2.346269593123165578e+03,1.736212741144857773e+03,1.758052819143553279e+03,4.084620600982816541e+03,2.070837068440399435e+03,9.523238182067871094e+00,1.529837548732757568e-01,-3.442134261131286621e-01,2.000000000000000000e+02
1.852275298075149294e+03,1.818715495523146274e+03,2.195100356405394450e+03,2.394567093427519922e+03,1.675383996111513625e+03,1.687919962095203573e+03,4.157629588004541802e+03,1.957223845766560089e+03,9.523238182067871094e+00,1.529837548732757568e-01,-3.442134261131286621e-01,2.010000000000000000e+02
1.794155020350996892e+03,1.763976881329792832e+03,2.126204401338204207e+03,2.397210194085027979e+03,1.621806717938095517e+03,1.632068588999289659e+03,4.193422617440072827e+03,1.891083882375168287e+03,9.523238182067871094e+00,1.529837548732757568e-01,-3.442134261131286621e-01,2.020000000000000000e+02
1.806348353555087670e+03,1.783052987273652889e+03,2.134805976551831463e+03,2.319143161891224736e+03,1.626938821322479725e+03,1.650482535562885914e+03,4.057187656111281285e+03,1.936699691576555551e+03,9.523238182067871094e+00,1.529837548732757568e-01,-3.442134261131286621e-01,2.030000000000000000e+02
1.848433758767229847e+03,1.829513612559374906e+03,2.178905123878399991e+03,2.236688666602211015e+03,1.661964620030940296e+03,1.700591802021330295e+03,3.852863001057110523e+03,2.004648447943568954e+03,9.523238182067871094e+00,1.529837548732757568e-01,-3.442134261131286621e-01,2.040000000000000000e+02
1.838975559858107772e+03,1.816368104436612157e+03,2.168310748999853331e+03,2.231618823701206111e+03,1.659076668114391850e+03,1.696025661115902494e+03,3.779350377394561292e+03,1.975787994566453335e+03,9.523238182067871094e+00,1.529837548732757568e-01,-3.442134261131286621e-01,2.050000000000000000e+02
1.770047288684348132e+03,1.737456668152293787e+03,2.089187801627213958e+03,2.278033854965941373e+03,1.605267164637930819e+03,1.626334502516065641e+03,3.855719991375792233e+03,1.865789380460730399e+03,9.523238182067871094e+00,1.529837548732757568e-01,-3.442134261131286621e-01,2.060000000000000000e+02
1.717873898407468914e+03,1.677647742908386135e+03,2.022965958730987950e+03,2.278836986211401836e+03,1.558917202657459711e+03,1.571636228770333673e+03,3.895505335908213965e+03,1.803286479200695567e+03,9.523238182067871094e+00,1.529837548732757568e-01,-3.442134261131286621e-01,2.070000000000000000e+02
1.734683532571845717e+03,1.696111614849039597e+03,2.033603227880206305e+03,2.200220314300661812e+03,1.568431213538684460e+03,1.591453409214355361e+03,3.764712886260312189e+03,1.851948102312631818e+03,9.523238182067871094e+00,7.649187743663787842e-02,-3.442134261131286621e-01,2.080000000000000000e+02
1.775597804149901549e+03,1.744144736506164463e+03,2.079131491677590475e+03,2.117685050092472920e+03,1.605594955270483297e+03,1.641937666387182162e+03,3.566316535163491608e+03,1.921986807046281456e+03,9.523238182067871094e+00,7.649187743663787842e-02,-3.442134261131286621e-01,2.090000000000000000e+02
1.762392111291360834e+03,1.732382448113308328e+03,2.069642516906793389e+03,2.111236298716869896e+03,1.603750375396405616e+03,1.636335636701903695e+03,3.496876013985637655e+03,1.893654175614296037e+03,9.523238182067871094e+00,7.649187743663787842e-02,-3.442134261131286621e-01,2.100000000000000000e+02
1.692590386829438103e+03,1.654637389586668633e+03,1.991136412981188641e+03,2.155201204812371998e+03,1.548280796123372966e+03,1.564636978196591826e+03,3.574223191303214662e+03,1.782393974104091285e+03,9.523238182067871094e+00,7.649187743663787842e-02,-3.442134261131286621e-01,2.110000000000000000e+02
1.642304070203596439e+03,1.595847112614892467e+03,1.924105307053728211e+03,2.153966825048884402e+03,1.496987716602854562e+03,1.507138915735756655e+03,3.612831936942709945e+03,1.717339372379805582e+03,9.523238182067871094e+00,7.649187743663787842e-02,-3.442134261131286621e-01,2.120000000000000000e+02
1.661013195779501757e+03,1.613346147473302835e+03,1.932418177168723560e+03,2.073854712314323024e+03,1.502302741102151231e+03,1.524048565237197636e+03,3.480489730749842238e+03,1.763220397219391998e+03,9.523238182067871094e+00,7.649187743663787842e-02,-3.442134261131286621e-01,2.130000000000000000e+02
1.703513982533595026e+03,1.657892035974688724e+03,1.976424244240972712e+03,1.989911640460814851e+03,1.539900689688618513e+03,1.573021184303957853e+03,3.281388067338695691e+03,1.831698389445030443e+03,9.523238182067871094e+00,7.649187743663787842e-02,-3.442134261131286621e-01,2.140000000000000000e+02
1.691502742704498814e+03,1.644021487366007932e+03,1.968575586225987990e+03,1.982999336836574003e+03,1.541563929369908692e+03,1.567408379315845195e+03,3.212513149848479770e+03,1.803779941529953021e+03,9.523238182067871094e+00,7.649187743663787842e-02,-3.442134261131286621e-01,2.150000000000000000e+02
1.620988376908459486e+03,1.569578233590862283e+03,1.893769649478580959e+03,2.028342065703506250e+03,1.488909433926458632e+03,1.495575322025631067e+03,3.291601815417754096e+03,1.693679400014910925e+03,9.523238182067871094e+00,7.649187743663787842e-02,-3.442134261131286621e-01,2.160000000000000000e+02
1.568634175555574529e+03,1.517906669321145955e+03,1.829375240190717250e+03,2.029639867604811116e+03,1.438758775642576211e+03,1.437489564052913238e+03,3.332958113684467662e+03,1.628394128543063516e+03,9.523238182067871094e+00,7.649187743663787842e-02,-3.442134261131286621e-01,2.170000000000000000e+02
1.586888808165098908e+03,1.542361745768134597e+03,1.838257427279815602e+03,1.952305262128946197e+03,1.443696696738839364e+03,1.454583767579981668e+03,3.204569602307009518e+03,1.672034369238621821e+03,9.523238182067871094e+00,7.649187743663787842e-02,-3.442134261131286621e-01,2.180000000000000000e+02
1.631348552123842182e+03,1.593429433154950630e+03,1.881761824102386299e+03,1.871411344354938137e+03,1.478281283147329759e+03,1.504100496584886514e+03,3.010784421774942075e+03,1.737368832255061989e+03,9.523238182067871094e+00,7.649187743663787842e-02,-3.442134261131286621e-01,2.190000000000000000e+02
1.621512976595418422e+03,1.586091040659606278e+03,1.872595657975282620e+03,1.867423147163402973e+03,1.475030531948295220e+03,1.497971009081422608e+03,2.947748012367911542e+03,1.706926887027741486e+03,9.523238182067871094e+00,7.649187743663787842e-02,-3.442134261131286621e-01,2.200000000000000000e+02
1.551689209601391667e+03,1.514304579124525844e+03,1.795682437741693320e+03,1.914314691408424551e+03,1.419864080602793365e+03,1.425809241527945915e+03,3.031624957761100632e+03,1.596714644943666372e+03,9.523238182067871094e+00,7.649187743663787842e-02,-3.442134261131286621e-01,2.210000000000000000e+02
1.498118855326930088e+03,1.458560737539777847e+03,1.729813355654570387e+03,1.915574936717416222e+03,1.372296276707797688e+03,1.369760013753767907e+03,3.075989556530045320e+03,1.535128082208694650e+03,9.523238182067871094e+00,7.649187743663787842e-02,-3.442134261131286621e-01,2.220000000000000000e+02
1.513058023626702607e+03,1.476767450614478776e+03,1.739073825146893341e+03,1.838072616480181296e+03,1.382029196350472603e+03,1.389595670567545994e+03,2.949610925604839849e+03,1.584795709773163253e+03,9.523238182067871094e+00,7.649187743663787842e-02,-3.442134261131286621e-01,2.230000000000000000e+02
1.553535007460453699e+03,1.525026219731743595e+03,1.784414362278408589e+03,1.758265398576754023e+03,1.419278294504385485e+03,1.439165965093734940e+03,2.757942258709162616e+03,1.654408578129679427e+03,9.523238182067871094e+00,7.649187743663787842e-02,-3.442134261131286621e-01,2.240000000000000000e+02
1.542317149055673326e+03,1.516745731076375478e+03,1.778294357857255363e+03,1.756830938304185793e+03,1.415980771753813769e+03,1.430854590550511148e+03,2.697392363444020702e+03,1.624467787988230384e+03,9.523238182067871094e+00,7.649187743663787842e-02,-3.442134261131286621e-01,2.250000000000000000e+02
1.474902748790308806e+03,1.441899410490624632e+03,1.705925493254438607e+03,1.807317091482857222e+03,1.359852147591593621e+03,1.356878205429343552e+03,2.784049936817758862e+03,1.512962452156456493e+03,9.523238182067871094e+00,7.649187743663787842e-02,-3.442134261131286621e-01,2.260000000000000000e+02
1.424928530090128788e+03,1.382273149735110792e+03,1.644565051733437940e+03,1.812720931901168115e+03,1.310781791937150047e+03,1.298997264176739918e+03,2.832145211309188198e+03,1.450345363811557718e+03,9.523238182067871094e+00,7.649187743663787842e-02,-3.442134261131286621e-01,2.270000000000000000e+02
1.442252581329268651e+03,1.398894192305648858e+03,1.655507977693388284e+03,1.739449487942228643e+03,1.317756737609858874e+03,1.315640792796452615e+03,2.711512995661621062e+03,1.498892486575259682e+03,9.523238182067871094e+00,7.649187743663787842e-02,-3.442134261131286621e-01,2.280000000000000000e+02
1.484360201154314836e+03,1.446981932949456677e+03,1.699170775968235375e+03,1.663343572009109721e+03,1.351496603028602294e+03,1.363031936270879214e+03,2.527581341831125428e+03,1.567318593418820910e+03,9.523238182067871094e+00,7.649187743663787842e-02,-3.442134261131286621e-01,2.290000000000000000e+02
1.474317232135575068e+03,1.438142187903659760e+03,1.689778932515512224e+03,1.663929223010755777e+03,1.345511179253559476e+03,1.356702916139145600e+03,2.475139864691882849e+03,1.537867720193030436e+03,9.523238182067871094e+00,7.649187743663787842e-02,-3.442134261131286621e-01,2.300000000000000000e+02
1.405706675813778929e+03,1.363619747171427207e+03,1.613992731390907466e+03,1.713716720140558209e+03,1.288633309898186326e+03,1.287363737217037851e+03,2.568565140969972163e+03,1.428812474964371631e+03,9.523238182067871094e+00,7.649187743663787842e-02,-3.442134261131286621e-01,2.310000000000000000e+02
1.351461963807686061e+03,1.306083306518391964e+03,1.550479165300374461e+03,1.716571969745937167e+03,1.241040063058122996e+03,1.233096844867937762e+03,2.621862783926291740e+03,1.368559946758276510e+03,9.523238182067871094e+00,7.649187743663787842e-02,-3.442134261131286621e-01,2.320000000000000000e+02
1.364487201762489349e+03,1.323930417764418053e+03,1.562604208098845447e+03,1.641520324750052168e+03,1.251275500217686385e+03,1.252140113194828245e+03,2.505573895824997635e+03,1.418758698501561867e+03,9.523238182067871094e+00,7.649187743663787842e-02,-3.442134261131286621e-01,2.330000000000000000e+02
1.405523228440466028e+03,1.370089653126924532e+03,1.610601905484325471e+03,1.565591975434029337e+03,1.288726410302995646e+03,1.302682658860777337e+03,2.325123859701203401e+03,1.489941231996776878e+03,9.523238182067871094e+00,7.649187743663787842e-02,-3.442134261131286621e-01,2.340000000000000000e+02
1.397361500445937963e+03,1.358123119822300396e+03,1.605225226153662334e+03,1.566557829827557725e+03,1.285307344704243405e+03,1.299690694455430275e+03,2.274579353242944308e+03,1.464699415779009996e+03,9.446745872497558594e+00,1.147378161549568176e-01,-2.677215635776519775e-01,2.350000000000000000e+02
1.331699737884368005e+03,1.282939386652402845e+03,1.530970672016353092e+03,1.615174796646580944e+03,1.229314417927041632e+03,1.231783844600893644e+03,2.368395242761895133e+03,1.358808996109998589e+03,9.446745872497558594e+00,1.147378161549568176e-01,-2.677215635776519775e-01,2.360000000000000000e+02
1.280881405545123926e+03,1.227869228808512162e+03,1.468051235756948699e+03,1.616283491931357275e+03,1.181684855568953481e+03,1.177215300222066617e+03,2.421836771273313389e+03,1.299000158797615768e+03,9.446745872497558594e+00,1.147378161549568176e-01,-2.677215635776519775e-01,2.370000000000000000e+02
1.297197980841397566e+03,1.248655819849797808e+03,1.481050292618541789e+03,1.540870138100223812e+03,1.192030740944133868e+03,1.195496584804261147e+03,2.306407913392128648e+03,1.347916807809360307e+03,9.446745872497558594e+00,1.147378161549568176e-01,-2.677215635776519775e-01,2.380000000000000000e+02
1.339758736183114706e+03,1.296263013474975196e+03,1.528926644408134962e+03,1.466133570366398999e+03,1.230263014279029903e+03,1.244113275060383785e+03,2.127217779068070740e+03,1.417238677392183490e+03,9.446745872497558594e+00,1.147378161549568176e-01,-2.677215635776519775e-01,2.390000000000000000e+02
1.331530709960051354e+03,1.285674205457341941e+03,1.522125756327575345e+03,1.468766204650209147e+03,1.227849508191827681e+03,1.237194367059038086e+03,2.077699089054180149e+03,1.389502536093102208e+03,9.446745872497558594e+00,1.147378161549568176e-01,-2.677215635776519775e-01,2.400000000000000000e+02
1.266749348978242779e+03,1.214317643801500253e+03,1.446958577615633203e+03,1.519186221171796205e+03,1.171601641567220213e+03,1.165608674653091384e+03,2.172704937479434193e+03,1.280827854812490841e+03,9.446745872497558594e+00,1.147378161549568176e-01,-2.677215635776519775e-01,2.410000000000000000e+02
1.218145341593703961e+03,1.165536451588809541e+03,1.383972645927739450e+03,1.522467966048739981e+03,1.121059525607715841e+03,1.110481038571492718e+03,2.228597308764143236e+03,1.218882555738959127e+03,9.446745872497558594e+00,1.147378161549568176e-01,-2.677215635776519775e-01,2.420000000000000000e+02
1.234914765139387782e+03,1.193133493984892084e+03,1.396107817376636376e+03,1.449166342611710206e+03,1.126442322227728255e+03,1.130636455254174507e+03,2.117138425633927000e+03,1.266329057238181122e+03,9.446745872497558594e+00,1.147378161549568176e-01,-2.677215635776519775e-01,2.430000000000000000e+02
1.274741674153982785e+03,1.246771470245770615e+03,1.442620832250305284e+03,1.375524850371558387e+03,1.160514517482574774e+03,1.181046811119402264e+03,1.942251499019270341e+03,1.334508065190184880e+03,9.446745872497558594e+00,1.147378161549568176e-01,-2.677215635776519775e-01,2.440000000000000000e+02
1.263492903535165169e+03,1.240520203856784065e+03,1.436762226227840983e+03,1.377719166356107962e+03,1.157472276093488290e+03,1.175450342072565036e+03,1.895931446034126566e+03,1.306684211120973487e+03,9.446745872497558594e+00,1.147378161549568176e-01,-2.677215635776519775e-01,2.450000000000000000e+02
1.198495783472193580e+03,1.170449471067996456e+03,1.365936466533963539e+03,1.426520897066508041e+03,1.104088221920739670e+03,1.105067694283894525e+03,1.992710114441575570e+03,1.199396541763012465e+03,9.446745872497558594e+00,1.147378161549568176e-01,-2.677215635776519775e-01,2.460000000000000000e+02
1.152488467072635103e+03,1.120176381545052209e+03,1.308229436238019844e+03,1.428202968910305572e+03,1.057108710197621804e+03,1.049407138521770321e+03,2.049659873690514360e+03,1.138894807347585811e+03,9.446745872497558594e+00,1.147378161549568176e-01,-2.677215635776519775e-01,2.470000000000000000e+02
1.173118173204796221e+03,1.146154508564955904e+03,1.323573149835597178e+03,1.354653545574676173e+03,1.063961712731081207e+03,1.066526294125366803e+03,1.939426874283404686e+03,1.186735256877193024e+03,9.446745872497558594e+00,1.147378161549568176e-01,-2.677215635776519775e-01,2.480000000000000000e+02
1.216232815814604692e+03,1.199657254922861284e+03,1.370469455456480318e+03,1.282274227375763076e+03,1.097157777414889097e+03,1.114635007141195274e+03,1.766665747342593022e+03,1.255751353173024654e+03,9.446745872497558594e+00,1.147378161549568176e-01,-2.677215635776519775e-01,2.490000000000000000e+02
1.205102116773202397e+03,1.193564776626015373e+03,1.362955077248327143e+03,1.286327675841702330e+03,1.092631618585934120e+03,1.111237969819624595e+03,1.723734201192293767e+03,1.231349200472426674e+03,9.446745872497558594e+00,1.147378161549568176e-01,-2.677215635776519775e-01,2.500000000000000000e+02
1.135255810091425701e+03,1.122463229005435096e+03,1.288953668042130630e+03,1.337541082879743954e+03,1.038521131481615157e+03,1.047473644987741864e+03,1.824603654317574183e+03,1.130078660609382496e+03,9.446745872497558594e+00,1.147378161549568176e-01,-2.677215635776519775e-01,2.510000000000000000e+02
1.080997410240287536e+03,1.069339409412040368e+03,1.227164245177138582e+03,1.343298405360649667e+03,9.920147813260982730e+02,1.000415017492422521e+03,1.885205767287368872e+03,1.076591638518152649e+03,9.446745872497558594e+00,1.147378161549568176e-01,-2.677215635776519775e-01,2.520000000000000000e+02
1.094095941764629060e+03,1.089941705301555885e+03,1.239725763239829575e+03,1.275096126014392212e+03,1.001124453778429597e+03,1.025770482749703660e+03,1.777746189746701930e+03,1.130718079758437852e+03,9.446745872497558594e+00,1.147378161549568176e-01,-2.677215635776519775e-01,2.530000000000000000e+02
1.133670223928786072e+03,1.136603816600530990e+03,1.287868242406193531e+03,1.206548197388972767e+03,1.038510824944750311e+03,1.078688389563963938e+03,1.607216300351587051e+03,1.203577482175721343e+03,9.446745872497558594e+00,1.147378161549568176e-01,-2.677215635776519775e-01,2.540000000000000000e+02
1.123446855008957755e+03,1.126564864971456700e+03,1.285480002104848609e+03,1.211091428116769748e+03,1.038518822433711648e+03,1.074081932665974819e+03,1.565932360743985555e+03,1.179717143295329151e+03,9.446745872497558594e+00,1.147378161549568176e-01,-2.677215635776519775e-01,2.550000000000000000e+02
1.057126273036261409e+03,1.057509968350862437e+03,1.217096478803174250e+03,1.260909131288372009e+03,9.873391965087494100e+02,1.004644100400804746e+03,1.667668374475451856e+03,1.076950563562621028e+03,9.446745872497558594e+00,1.147378161549568176e-01,-2.677215635776519775e-01,2.560000000000000000e+02
1.006755653524572153e+03,1.009775206968629391e+03,1.158769354179199581e+03,1.265629675421012507e+03,9.419463944289773281e+02,9.518787478265903701e+02,1.729282137599397174e+03,1.021934565435249169e+03,9.446745872497558594e+00,1.147378161549568176e-01,-2.677215635776519775e-01,2.570000000000000000e+02
1.023224152722642430e+03,1.034513272860145662e+03,1.172876198855879920e+03,1.197185476105383714e+03,9.508234443179817390e+02,9.737054804181962027e+02,1.624255895076541492e+03,1.074938485945916909e+03,9.446745872497558594e+00,1.147378161549568176e-01,-2.677215635776519775e-01,2.580000000000000000e+02
1.066129046844427648e+03,1.083314322578953579e+03,1.221334974400790088e+03,1.129113881673685682e+03,9.863512756569834892e+02,1.024966455181449419e+03,1.457291218510552426e+03,1.146757911702447018e+03,9.446745872497558594e+00,1.147378161549568176e-01,-2.677215635776519775e-01,2.590000000000000000e+02
1.059414889221961857e+03,1.074947309695398872e+03,1.217951243670211625e+03,1.135471216757841830e+03,9.835081473321679368e+02,1.020653246069581655e+03,1.419518954747489261e+03,1.122565417070176409e+03,9.446745872497558594e+00,1.147378161549568176e-01,-2.677215635776519775e-01,2.600000000000000000e+02
9.962120252645127039e+02,1.006553370401096799e+03,1.148609850304820611e+03,1.187833646773353394e+03,9.308762545846066132e+02,9.528202539585463455e+02,1.524776637979441148e+03,1.020424069048971432e+03,9.446745872497558594e+00,1.147378161549568176e-01,-2.677215635776519775e-01,2.610000000000000000e+02
9.484002403289323411e+02,9.572139242499679312e+02,1.091786562740988302e+03,1.193300577840196638e+03,8.866133608240352260e+02,9.001274819874142850e+02,1.590864869992235981e+03,9.654446573701179659e+02,9.446745872497558594e+00,1.147378161549568176e-01,-2.677215635776519775e-01,2.620000000000000000e+02
9.675806791242575855e+02,9.796439018706150819e+02,1.109491497919735593e+03,1.122528326780078714e+03,8.976736082909847028e+02,9.191442922475034720e+02,1.491277623655476418e+03,1.016752860553351638e+03,9.446745872497558594e+00,1.147378161549568176e-01,-2.677215635776519775e-01,2.630000000000000000e+02
1.013940460442030599e+03,1.028099564893311253e+03,1.160575577125506243e+03,1.051102351472660303e+03,9.351453223229982541e+02,9.673989721919642761e+02,1.329964712117931413e+03,1.086523512264758210e+03,9.446745872497558594e+00,1.147378161549568176e-01,-2.677215635776519775e-01,2.640000000000000000e+02
1.010937005432488149e+03,1.020755267318701954e+03,1.157949148069305011e+03,1.055926798327147480e+03,9.346405792750592809e+02,9.627365079275405151e+02,1.297520877561204543e+03,1.061972074404948216e+03,9.446745872497558594e+00,1.147378161549568176e-01,-2.677215635776519775e-01,2.650000000000000000e+02
9.502342341900166502e+02,9.513739913474946661e+02,1.089984239544583033e+03,1.109215204956393791e+03,8.849275934167108062e+02,8.970031126135563682e+02,1.407055947328362890e+03,9.613572801698246622e+02,9.523238182067871094e+00,1.147378161549568176e-01,-3.442134261131286621e-01,2.660000000000000000e+02
9.023871525377635407e+02,8.975979478105655289e+02,1.036570850661055374e+03,1.116867549700498785e+03,8.426806189022045146e+02,8.475615002853010083e+02,1.475484755030582164e+03,9.086457179495801029e+02,9.523238182067871094e+00,1.147378161549568176e-01,-3.442134261131286621e-01,2.670000000000000000e+02
9.192351556470439391e+02,9.143739073116284999e+02,1.057793221833784628e+03,1.048270620382614652e+03,8.538162934008723823e+02,8.701237851524401776e+02,1.376686575168316267e+03,9.620644562818397389e+02,9.523238182067871094e+00,1.147378161549568176e-01,-3.442134261131286621e-01,2.680000000000000000e+02
9.627226675088313641e+02,9.586251169532006315e+02,1.110216420305345309e+03,9.782131768555482267e+02,8.899933476242676988e+02,9.207966118178810575e+02,1.216004310776699640e+03,1.033400474880107140e+03,9.523238182067871094e+00,1.147378161549568176e-01,-3.442134261131286621e-01,2.690000000000000000e+02
9.581913875405225554e+02,9.495698802364822768e+02,1.106691378208455717e+03,9.832580839167294471e+02,8.878661308620921773e+02,9.160621040196328977e+02,1.184227159707763349e+03,1.009515591734289046e+03,9.523238182067871094e+00,1.147378161549568176e-01,-3.442134261131286621e-01,2.700000000000000000e+02
8.988195514025646844e+02,8.823171014686358831e+02,1.036897679748044538e+03,1.035951018931331419e+03,8.370338369340388454e+02,8.478256372473606461e+02,1.293550315604512434e+03,9.079439544469187240e+02,9.523238182067871094e+00,1.147378161549568176e-01,-3.442134261131286621e-01,2.710000000000000000e+02
8.561398413285205606e+02,8.363119856648281711e+02,9.818320200018024480e+02,1.043141597583487965e+03,7.946953252737857838e+02,7.940659108050003852e+02,1.361426261545970192e+03,8.518550272474731173e+02,9.523238182067871094e+00,1.147378161549568176e-01,-3.442134261131286621e-01,2.720000000000000000e+02
8.803228181449521799e+02,8.648635601922269416e+02,1.001892797241389417e+03,9.753399477623042912e+02,8.063455540685699816e+02,8.115001912375264510e+02,1.263696022005784471e+03,9.001071174823464389e+02,9.523238182067871094e+00,1.147378161549568176e-01,-3.442134261131286621e-01,2.730000000000000000e+02
9.283911277388706367e+02,9.194271856610757823e+02,1.053165663736115675e+03,9.078648572328420414e+02,8.425536818932378083e+02,8.589696065486459702e+02,1.105982915958877129e+03,9.670881719863555190e+02,9.523238182067871094e+00,1.147378161549568176e-01,-3.442134261131286621e-01,2.740000000000000000e+02
9.225634393525706400e+02,9.155370633354887104e+02,1.048200377014971309e+03,9.163216528199500317e+02,8.398281523812584055e+02,8.554570878091362829e+02,1.077006267128050240e+03,9.419588276046670217e+02,9.523238182067871094e+00,1.147378161549568176e-01,-3.442134261131286621e-01,2.750000000000000000e+02
8.589988072614232806e+02,8.489165172558696213e+02,9.774859480447867099e+02,9.712894484963144350e+02,7.888273314083016885e+02,7.917683555318781146e+02,1.187666800308885286e+03,8.423347662710930308e+02,9.523238182067871094e+00,1.147378161549568176e-01,-3.442134261131286621e-01,2.760000000000000000e+02
8.137897120429952338e+02,8.002305216404456587e+02,9.227000528654880327e+02,9.790040476559406670e+02,7.473694868623060756e+02,7.432666210388269974e+02,1.256432551357527700e+03,7.905313899023003614e+02,9.523238182067871094e+00,1.147378161549568176e-01,-3.442134261131286621e-01,2.770000000000000000e+02
8.366169534054515680e+02,8.235555577653176442e+02,9.432653728701479849e+02,9.116692065639217617e+02,7.602598760187920561e+02,7.663950138081036130e+02,1.160114113960378745e+03,8.446877660367681528e+02,9.523238182067871094e+00,1.147378161549568176e-01,-3.442134261131286621e-01,2.780000000000000000e+02
8.814397987807624304e+02,8.735441275052689889e+02,9.942652757276027842e+02,8.461228545609919820e+02,7.971035657827160321e+02,8.201781812915724004e+02,1.003579318642674480e+03,9.174032267959337332e+02,9.523238182067871094e+00,1.147378161549568176e-01,-3.442134261131286621e-01,2.790000000000000000e+02
8.712428362060691143e+02,8.692585798944055568e+02,9.891668653112537868e+02,8.573531919330453093e+02,7.943647585471444472e+02,8.217100714611278818e+02,9.748704260043450631e+02,8.956454534772237821e+02,9.523238182067871094e+00,1.147378161549568176e-01,-3.442134261131286621e-01,2.800000000000000000e+02
8.053320183119212743e+02,8.048951182452783542e+02,9.190763900955098507e+02,9.149819363928054372e+02,7.433989469082753203e+02,7.609998833360605204e+02,1.085913190618339286e+03,7.972759086795977055e+02,9.523238182067871094e+00,1.147378161549568176e-01,-3.442134261131286621e-01,2.810000000000000000e+02
7.598439201225664874e+02,7.567424478202683531e+02,8.638740326394981821e+02,9.256843392879200110e+02,7.022813256203644414e+02,7.152609578593746846e+02,1.156392507385968202e+03,7.464662883465425693e+02,9.523238182067871094e+00,1.147378161549568176e-01,-3.442134261131286621e-01,2.820000000000000000e+02
7.826141644252038532e+02,7.784781609088204277e+02,8.822738657580812287e+02,8.619101281299299444e+02,7.152967932964402280e+02,7.408104765511652658e+02,1.062819822922323510e+03,8.013184236461656837e+02,9.523238182067871094e+00,1.147378161549568176e-01,-3.442134261131286621e-01,2.830000000000000000e+02
8.283134538016438455e+02,8.277879306628747145e+02,9.327075919358048850e+02,7.994982460815353988e+02,7.520243164589446678e+02,7.937723526067329658e+02,9.092093581899753190e+02,8.735255124935829372e+02,9.523238182067871094e+00,1.147378161549568176e-01,-3.442134261131286621e-01,2.840000000000000000e+02
8.215591807200944459e+02,8.248483935496806225e+02,9.313021276668769133e+02,8.131848145807998662e+02,7.499510388224443886e+02,7.916665813393919962e+02,8.834567399036022834e+02,8.515902984837684926e+02,9.523238182067871094e+00,1.147378161549568176e-01,-3.442134261131286621e-01,2.850000000000000000e+02
7.601826166309874679e+02,7.632856886989502527e+02,8.663923782824258524e+02,8.735962408343166317e+02,7.008174788559372246e+02,7.287084677622387971e+02,9.973571482051811472e+02,7.551398011403944110e+02,9.523238182067871094e+00,1.147378161549568176e-01,-3.442134261131286621e-01,2.860000000000000000e+02
7.175515819608772290e+02,7.198561184594036604e+02,8.140415671926148207e+02,8.870696014945278876e+02,6.615783564018456673e+02,6.827177240155269828e+02,1.070201027009250538e+03,7.064623471616214374e+02,9.561484336853027344e+00,1.529837548732757568e-01,-3.442134261131286621e-01,2.870000000000000000e+02
7.414281226491566485e+02,7.471667922476754029e+02,8.335110789215996192e+02,8.240328291195837664e+02,6.758652187779316591e+02,7.061326779532719229e+02,9.791099422953229805e+02,7.610807564588230889e+02,9.561484336853027344e+00,1.529837548732757568e-01,-3.442134261131286621e-01,2.880000000000000000e+02
7.880040632669079059e+02,7.981730323804131331e+02,8.848473065869548009e+02,7.596540541061149270e+02,7.140641324002608599e+02,7.544215840438700980e+02,8.292592854152026121e+02,8.320758402080446103e+02,9.561484336853027344e+00,1.529837548732757568e-01,-3.442134261131286621e-01,2.890000000000000000e+02
7.819701316187201883e+02,7.901199166303576931e+02,8.830666972528051701e+02,7.699495308543155261e+02,7.136931805392559909e+02,7.491773283422699024e+02,8.077755392397120886e+02,8.105966948127261276e+02,9.561484336853027344e+00,1.529837548732757568e-01,-3.442134261131286621e-01,2.900000000000000000e+02
7.207792865365663602e+02,7.205204111296116025e+02,8.167271693456350476e+02,8.263386286618442682e+02,6.649009408611436811e+02,6.862053410899461596e+02,9.240516177939425688e+02,7.154725185495881306e+02,9.561484336853027344e+00,1.529837548732757568e-01,-3.442134261131286621e-01,2.910000000000000000e+02
6.792114733595517464e+02,6.721803562614550174e+02,7.655069258476360119e+02,8.353308177888284263e+02,6.242761307369310089e+02,6.402887021446658764e+02,9.968384371281208587e+02,6.667878503324427584e+02,9.561484336853027344e+00,1.529837548732757568e-01,-3.442134261131286621e-01,2.920000000000000000e+02
7.067877675094023289e+02,6.987930257922762394e+02,7.892315062402576586e+02,7.687189484538394026e+02,6.373399744426715188e+02,6.620618247874299414e+02,9.053809395360731287e+02,7.201782191363818129e+02,9.561484336853027344e+00,1.529837548732757568e-01,-3.442134261131286621e-01,2.930000000000000000e+02
7.590799158711306518e+02,7.506673233724850434e+02,8.432451490603052662e+02,7.030222859373134270e+02,6.752968726556428010e+02,7.086258152582231560e+02,7.565128866741652018e+02,7.894117355215512362e+02,9.561484336853027344e+00,1.529837548732757568e-01,-3.442134261131286621e-01,2.940000000000000000e+02
7.583818395941343624e+02,7.441689586269494612e+02,8.404601131442141195e+02,7.131632835461277864e+02,6.738953223283933767e+02,7.022067474632058293e+02,7.370556050253071589e+02,7.647225195427399740e+02,9.561484336853027344e+00,1.529837548732757568e-01,-3.442134261131286621e-01,2.950000000000000000e+02
7.005587093224967248e+02,6.773612972175360483e+02,7.730068935104645789e+02,7.686089369978144532e+02,6.223733614656775899e+02,6.366363781296604429e+02,8.558381192930864927e+02,6.650672340638720925e+02,9.561484336853027344e+00,1.529837548732757568e-01,-3.442134261131286621e-01,2.960000000000000000e+02
6.601319228994798323e+02,6.313820027955953265e+02,7.224984030759369489e+02,7.762959701187137398e+02,5.794043241798717645e+02,5.861938943438508431e+02,9.315836658425032510e+02,6.133856233987498854e+02,9.561484336853027344e+00,1.529837548732757568e-01,-3.442134261131286621e-01,2.970000000000000000e+02
6.863666496808764350e+02,6.581044419277968700e+02,7.463742527078211424e+02,7.099197301839230931e+02,5.923507966235920321e+02,6.042314421049049997e+02,8.431697553264966700e+02,6.672293779291776445e+02,9.561484336853027344e+00,1.529837548732757568e-01,-3.442134261131286621e-01,2.980000000000000000e+02
7.347997016476656427e+02,7.105631782209420635e+02,7.995147226255139685e+02,6.461709466351821902e+02,6.310807510329977958e+02,6.498323453308512399e+02,6.968539648198675422e+02,7.385087797056512500e+02,9.561484336853027344e+00,1.529837548732757568e-01,-3.442134261131286621e-01,2.990000000000000000e+02
7.298549881263170391e+02,7.095390163253832725e+02,7.972160155751917046e+02,6.585140152829044382e+02,6.291616132418057532e+02,6.436063414395321161e+02,6.791965350620157551e+02,7.145626461655047024e+02,9.561484336853027344e+00,1.529837548732757568e-01,-3.442134261131286621e-01,3.000000000000000000e+02
6.713140703533754277e+02,6.521093495398745290e+02,7.309775597411353374e+02,7.159863742048837594e+02,5.761064851053233724e+02,5.772632744361981167e+02,7.985200894733898167e+02,6.137736208219721448e+02,9.561484336853027344e+00,1.529837548732757568e-01,-3.442134261131286621e-01,3.010000000000000000e+02
6.349812583101265773e+02,6.139873992302891565e+02,6.795923720620412496e+02,7.264555001139742672e+02,5.322067328671328141e+02,5.264061490257881815e+02,8.729729301877814578e+02,5.602640594585827785e+02,9.561484336853027344e+00,1.529837548732757568e-01,-3.442134261131286621e-01,3.020000000000000000e+02
6.656858248492644634e+02,6.442745185546118591e+02,7.015466804492498341e+02,6.636686398179663229e+02,5.452035366410927963e+02,5.476732511794907623e+02,7.820303145561265410e+02,6.129392349708723486e+02,9.561484336853027344e+00,1.529837548732757568e-01,-3.442134261131286621e-01,3.030000000000000000e+02
7.127624090137906023e+02,6.965300311735882133e+02,7.548634620244847611e+02,6.028156729913389427e+02,5.850455732500849990e+02,6.010979595673343283e+02,6.332087363261452992e+02,6.855222961114704958e+02,9.561484336853027344e+00,1.529837548732757568e-01,-3.442134261131286621e-01,3.040000000000000000e+02
6.995735902865962998e+02,6.906491836386157956e+02,7.541202490903197031e+02,6.164952803510459489e+02,5.870117202298424672e+02,6.054114164528145920e+02,6.134367702538293088e+02,6.674049426969359047e+02,9.561484336853027344e+00,1.529837548732757568e-01,-3.442134261131286621e-01,3.050000000000000000e+02
6.304521413272050268e+02,6.226307173521199729e+02,6.880607502660386672e+02,6.749063736002462974e+02,5.417604731805367919e+02,5.503388807285664370e+02,7.313181598844967084e+02,5.767368880833128060e+02,9.561484336853027344e+00,1.529837548732757568e-01,-3.442134261131286621e-01,3.060000000000000000e+02
5.857077104009367758e+02,5.717648626570007764e+02,6.356806952921579068e+02,6.871371451444101695e+02,5.068174706612990121e+02,5.097730115096783265e+02,8.064623120256001130e+02,5.336959590677979577e+02,9.561484336853027344e+00,1.529837548732757568e-01,-3.442134261131286621e-01,3.070000000000000000e+02
6.123122465820451907e+02,5.930359366742522980e+02,6.571238398628447612e+02,6.260590075208783674e+02,5.252237243697927624e+02,5.373502715031281696e+02,7.191312110526341712e+02,5.923359295062182355e+02,9.561484336853027344e+00,1.529837548732757568e-01,-3.442134261131286621e-01,3.080000000000000000e+02
6.618477958820803906e+02,6.418907131862724782e+02,7.106248180126931402e+02,5.654450153513353143e+02,5.654008390128583414e+02,5.903535043086740188e+02,5.751307071213450399e+02,6.647499694138386985e+02,9.561484336853027344e+00,1.529837548732757568e-01,-3.442134261131286621e-01,3.090000000000000000e+02
6.585692115376259608e+02,6.366509440857553273e+02,7.112506819045738666e+02,5.787601796492308495e+02,5.648496100704287528e+02,5.886793622888726532e+02,5.591749036058463389e+02,6.425588448072267056e+02,9.561484336853027344e+00,1.529837548732757568e-01,-3.442134261131286621e-01,3.100000000000000000e+02
6.012761574227697565e+02,5.728115681822382612e+02,6.488589970914254081e+02,6.384861333085500519e+02,5.164569683608824562e+02,5.268155860122969898e+02,6.803454724623734364e+02,5.473172257980404538e+02,9.561484336853027344e+00,1.529837548732757568e-01,-3.442134261131286621e-01,3.110000000000000000e+02
5.612323911364219384e+02,5.294592839331307914e+02,6.009857743544598634e+02,6.541360910217299534e+02,4.786967673543258570e+02,4.825157785905976198e+02,7.592014624251096393e+02,5.015806669008161407e+02,9.484992027282714844e+00,1.147378161549568176e-01,-3.059675097465515137e-01,3.120000000000000000e+02
5.832914906882724608e+02,5.583512552285974380e+02,6.245430638273574004e+02,5.968583996265188034e+02,4.960021875229576835e+02,5.098176998262060806e+02,6.757405280415041489e+02,5.604029239650408272e+02,9.484992027282714844e+00,1.147378161549568176e-01,-3.059675097465515137e-01,3.130000000000000000e+02
6.257744210894161370e+02,6.107274707128017326e+02,6.774908946209106944e+02,5.392920653528344701e+02,5.380168418296816526e+02,5.646378218088902941e+02,5.352225165371855837e+02,6.355847792869499244e+02,9.484992027282714844e+00,1.147378161549568176e-01,-3.059675097465515137e-01,3.140000000000000000e+02
6.186433634188761062e+02,6.044498155792243779e+02,6.777298835203655472e+02,5.552050896062610263e+02,5.406729504408795037e+02,5.657819959887747245e+02,5.224524767057446297e+02,6.172504937972516927e+02,9.484992027282714844e+00,1.147378161549568176e-01,-3.059675097465515137e-01,3.150000000000000000e+02
5.601824988000480516e+02,5.381587231231060287e+02,6.170065840690040204e+02,6.169060966890683630e+02,4.935196912207029527e+02,5.067517410558793927e+02,6.455599730456378893e+02,5.251744337791678845e+02,9.484992027282714844e+00,1.147378161549568176e-01,-3.059675097465515137e-01,3.160000000000000000e+02
5.207715569734900782e+02,4.936193068796019361e+02,5.725407048424203822e+02,6.328160059001893387e+02,4.539608760767296189e+02,4.638315490269524162e+02,7.246446823757214588e+02,4.809527442281796539e+02,9.484992027282714844e+00,1.147378161549568176e-01,-3.059675097465515137e-01,3.170000000000000000e+02
5.471663480089591758e+02,5.233813125319866231e+02,6.000059466554230312e+02,5.742179559201431402e+02,4.682521071045630379e+02,4.897946409194992157e+02,6.413159134078596253e+02,5.393977735418229713e+02,9.484992027282714844e+00,1.147378161549568176e-01,-3.059675097465515137e-01,3.180000000000000000e+02
5.971995237700029975e+02,5.794396650900380337e+02,6.555830422505678143e+02,5.155349443014711142e+02,5.075206750393044786e+02,5.404999290855994332e+02,5.027623237150837667e+02,6.121141910481055675e+02,9.484992027282714844e+00,1.147378161549568176e-01,-3.059675097465515137e-01,3.190000000000000000e+02
5.964593992951813561e+02,5.801431940550683066e+02,6.560211216347197478e+02,5.311961083195783431e+02,5.079736320943593455e+02,5.359953299917651748e+02,4.928599090485222405e+02,5.896083973645254446e+02,9.484992027282714844e+00,1.147378161549568176e-01,-3.059675097465515137e-01,3.200000000000000000e+02
5.407847461762466992e+02,5.212449518033172353e+02,5.943862394038078492e+02,5.919568406841208343e+02,4.603972923017390713e+02,4.715679743330329075e+02,6.174193466220822302e+02,4.935682473576744087e+02,9.484992027282714844e+00,1.147378161549568176e-01,-3.059675097465515137e-01,3.210000000000000000e+02
5.019368347072886536e+02,4.788018445629386406e+02,5.501927416681210161e+02,6.055253815991964075e+02,4.237925545953330584e+02,4.250184117497665284e+02,6.966551869518007152e+02,4.479912531528934778e+02,9.484992027282714844e+00,1.147378161549568176e-01,-3.059675097465515137e-01,3.220000000000000000e+02
5.275184598122177704e+02,5.029981451521234703e+02,5.791933869679160125e+02,5.450833554617092886e+02,4.430176286917558173e+02,4.501257469941592717e+02,6.140813906381372362e+02,5.081854722700991260e+02,9.484992027282714844e+00,1.147378161549568176e-01,-3.059675097465515137e-01,3.230000000000000000e+02
5.747777183893813344e+02,5.500318004223336175e+02,6.360159489853976993e+02,4.864620465406696894e+02,4.855792188378327410e+02,5.031952109443009249e+02,4.769298786063882289e+02,5.840034060536308971e+02,9.484992027282714844e+00,1.147378161549568176e-01,-3.059675097465515137e-01,3.240000000000000000e+02
5.705693950568165747e+02,5.441423953602898109e+02,6.366975453969498631e+02,5.027000566609276575e+02,4.865878565385028196e+02,5.034250560890795896e+02,4.677992956054877141e+02,5.639363418736938911e+02,9.484992027282714844e+00,1.147378161549568176e-01,-3.059675097465515137e-01,3.250000000000000000e+02
5.134428607364279742e+02,4.836644731443630008e+02,5.739585167197365081e+02,5.632637251556443516e+02,4.387536449464350881e+02,4.433767915427451953e+02,5.926432284130933112e+02,4.684684140637691598e+02,9.484992027282714844e+00,1.147378161549568176e-01,-3.059675097465515137e-01,3.260000000000000000e+02
4.758889924053546565e+02,4.452292116006028664e+02,5.264803232877966366e+02,5.771126112355850637e+02,4.017451689325644111e+02,3.979666391672362806e+02,6.726987138780095847e+02,4.209213027004116157e+02,9.484992027282714844e+00,1.147378161549568176e-01,-3.059675097465515137e-01,3.270000000000000000e+02
5.039408674920159683e+02,4.788901366714817414e+02,5.507070554389210884e+02,5.185107309349768911e+02,4.192810038858915505e+02,4.209926966625389468e+02,5.909968130190827651e+02,4.773776848616907955e+02,9.484992027282714844e+00,1.147378161549568176e-01,-3.059675097465515137e-01,3.280000000000000000e+02
5.528246528497984400e+02,5.373052223958657123e+02,6.041057005711372767e+02,4.619041805853485130e+02,4.596294731704729202e+02,4.718150684871216072e+02,4.535136541858446435e+02,5.507603691666590748e+02,9.484992027282714844e+00,1.147378161549568176e-01,-3.059675097465515137e-01,3.290000000000000000e+02
5.478223185759998159e+02,5.385008884667913662e+02,6.042752572992249043e+02,4.789217699692962924e+02,4.602169897026215040e+02,4.723068950793822296e+02,4.429667677677498432e+02,5.322195637383010762e+02,9.484992027282714844e+00,1.147378161549568176e-01,-3.059675097465515137e-01,3.300000000000000000e+02
4.874283593185755308e+02,4.780324478567708866e+02,5.423867264835207607e+02,5.396381721431607730e+02,4.136924515229002282e+02,4.155073082964736386e+02,5.662429251558714896e+02,4.411962354580900865e+02,9.484992027282714844e+00,1.147378161549568176e-01,-3.059675097465515137e-01,3.310000000000000000e+02
4.461311940004452481e+02,4.346710217160434695e+02,4.953825363463365647e+02,5.537957961650608922e+02,3.780334553237516957e+02,3.762653882669401355e+02,6.449444000238872832e+02,3.980397741655942809e+02,9.484992027282714844e+00,1.147378161549568176e-01,-3.059675097465515137e-01,3.320000000000000000e+02
4.718889184938088874e+02,4.602589055792741419e+02,5.202346969867248845e+02,4.952492555027274648e+02,3.974667858888169576e+02,4.079371082004399796e+02,5.623862141206263914e+02,4.577962856825470226e+02,9.484992027282714844e+00,1.147378161549568176e-01,-3.059675097465515137e-01,3.330000000000000000e+02
5.203181088346900651e+02,5.074061719444434857e+02,5.757029831925028702e+02,4.378991727207903750e+02,4.417307515283064276e+02,4.667146543857415963e+02,4.254917536591237877e+02,5.336571508974520839e+02,9.484992027282714844e+00,1.147378161549568176e-01,-3.059675097465515137e-01,3.340000000000000000e+02
5.173272230110014789e+02,4.967362971283000661e+02,5.794570620211306959e+02,4.531156837076050579e+02,4.471182376502110856e+02,4.701018399705790216e+02,4.164888997792513692e+02,5.159896123111502675e+02,9.484992027282714844e+00,1.147378161549568176e-01,-3.059675097465515137e-01,3.350000000000000000e+02
4.622061922572247568e+02,4.294639038147142855e+02,5.217906486576030147e+02,5.110469815030301106e+02,4.041939174207655014e+02,4.110275585110430256e+02,5.412250323807165842e+02,4.240731989252562926e+02,9.484992027282714844e+00,1.147378161549568176e-01,-3.059675097465515137e-01,3.360000000000000000e+02
4.271916603235949879e+02,3.874533262593249674e+02,4.785800622570168343e+02,5.230904603252056404e+02,3.709375019670987967e+02,3.685572420962344040e+02,6.204162498793593841e+02,3.803240616583061637e+02,9.484992027282714844e+00,1.147378161549568176e-01,-3.059675097465515137e-01,3.370000000000000000e+02
4.559975091191372485e+02,4.207118685111854575e+02,5.056117216752681998e+02,4.656769579464016715e+02,3.915772749951865990e+02,3.982860389623383526e+02,5.382861748781069764e+02,4.406730469253998308e+02,9.484992027282714844e+00,1.147378161549568176e-01,-3.059675097465515137e-01,3.380000000000000000e+02
5.034878121460060356e+02,4.784323817836993840e+02,5.607111590119020548e+02,4.129585121475683991e+02,4.339402892605576199e+02,4.549897830395784695e+02,4.024610655550932279e+02,5.160929982996276522e+02,9.484992027282714844e+00,7.649187743663787842e-02,-2.677215635776519775e-01,3.390000000000000000e+02
4.983401870292946114e+02,4.782805772361680283e+02,5.616631688845009194e+02,4.339883703195519047e+02,4.341728535809525056e+02,4.560729956019422389e+02,3.947251689059485216e+02,4.961829073978442466e+02,9.484992027282714844e+00,7.649187743663787842e-02,-2.677215635776519775e-01,3.400000000000000000e+02
4.408137695434998022e+02,4.179778862579551060e+02,5.001236955473432317e+02,4.972885388589202194e+02,3.866291229438356822e+02,3.964730087294228724e+02,5.196446582601129194e+02,4.033079506643189234e+02,9.484992027282714844e+00,7.649187743663787842e-02,-2.677215635776519775e-01,3.410000000000000000e+02
4.024091631570045138e+02,3.764860533609826234e+02,4.537934089188129292e+02,5.137909713491244474e+02,3.523684540055692196e+02,3.545103171142036445e+02,5.989835251765471185e+02,3.616133940085783252e+02,9.484992027282714844e+00,7.649187743663787842e-02,-2.677215635776519775e-01,3.420000000000000000e+02
4.289993769715656526e+02,4.047049103063181974e+02,4.794838775422831532e+02,4.587050173835523310e+02,3.744075347843463533e+02,3.826704159565415466e+02,5.184517869879346108e+02,4.243982556031805871e+02,9.484992027282714844e+00,7.649187743663787842e-02,-2.677215635776519775e-01,3.430000000000000000e+02
4.786847508804421523e+02,4.561320945753832348e+02,5.346226802253950154e+02,4.056067039078043308e+02,4.182139373796671862e+02,4.360757055286303512e+02,3.854983798598841531e+02,5.005086612059494655e+02,9.484992027282714844e+00,7.649187743663787842e-02,-2.677215635776519775e-01,3.440000000000000000e+02
4.786967581123099080e+02,4.520915006515788264e+02,5.361223994258762104e+02,4.256838273008834221e+02,4.194378873554960592e+02,4.357329292167050880e+02,3.806480069192912197e+02,4.808392912890049047e+02,9.484992027282714844e+00,7.649187743663787842e-02,-2.677215635776519775e-01,3.450000000000000000e+02
4.249446390407538274e+02,3.913478177368233446e+02,4.754892140294687124e+02,4.893609665257608867e+02,3.718466781207534950e+02,3.774020208103029290e+02,5.079355667719064513e+02,3.884722766849663458e+02,9.484992027282714844e+00,7.649187743663787842e-02,-2.677215635776519775e-01,3.460000000000000000e+02
3.878614714517389075e+02,3.525125772648389102e+02,4.304732431222946616e+02,5.062074747947553988e+02,3.350023667513814871e+02,3.369284050193746225e+02,5.892941874173629913e+02,3.462079090101979091e+02,9.484992027282714844e+00,7.649187743663787842e-02,-2.677215635776519775e-01,3.470000000000000000e+02
4.148610240694324602e+02,3.848740145947522251e+02,4.572057888246781658e+02,4.497573951975136879e+02,3.530445126908452949e+02,3.658199766856923816e+02,5.102419725398794981e+02,4.080040921065010480e+02,9.484992027282714844e+00,7.649187743663787842e-02,-2.677215635776519775e-01,3.480000000000000000e+02
4.639189552414318314e+02,4.385240736904233927e+02,5.128698478352162056e+02,3.947582030663252226e+02,3.958642983376121265e+02,4.200825524633401074e+02,3.779601943888337701e+02,4.854594583081852761e+02,9.484992027282714844e+00,7.649187743663787842e-02,-2.677215635776519775e-01,3.490000000000000000e+02
4.620415504125630832e+02,4.323180248588323593e+02,5.157987122995255049e+02,4.137619187194286496e+02,4.012333797491446603e+02,4.202146540844187257e+02,3.732999609515100019e+02,4.693338756400989951e+02,9.484992027282714844e+00,7.649187743663787842e-02,-2.677215635776519775e-01,3.500000000000000000e+02
4.077937842957035173e+02,3.666938128591500572e+02,4.586304988939155010e+02,4.761524004427265027e+02,3.595042814022162929e+02,3.608876067125820555e+02,5.005832111252821051e+02,3.796656384447996970e+02,9.484992027282714844e+00,7.649187743663787842e-02,-2.677215635776519775e-01,3.510000000000000000e+02
3.736088519883851404e+02,3.238912834144648514e+02,4.175123211770405760e+02,4.906729969655934838e+02,3.260131888039904879e+02,3.189810332262568409e+02,5.815860909384064144e+02,3.381867851705683279e+02,9.484992027282714844e+00,7.649187743663787842e-02,-2.677215635776519775e-01,3.520000000000000000e+02
4.042689342771045631e+02,3.547842492100680829e+02,4.458436390180067974e+02,4.324219269769746461e+02,3.444422783872214495e+02,3.476421157481818227e+02,5.022328824094729498e+02,3.998874902251845924e+02,9.484992027282714844e+00,7.649187743663787842e-02,-2.677215635776519775e-01,3.530000000000000000e+02
4.540558716613377328e+02,4.100126508809044026e+02,5.001876902326766867e+02,3.775614618030667771e+02,3.855018013249209616e+02,4.025864688135188771e+02,3.707062554410222219e+02,4.759630993152095471e+02,9.484992027282714844e+00,7.649187743663787842e-02,-2.677215635776519775e-01,3.540000000000000000e+02
4.502557625951885711e+02,4.099814371414613561e+02,5.001546961660787929e+02,3.977731021412400878e+02,3.863544399931779481e+02,4.034197712399763986e+02,3.677190920431748964e+02,4.565477776434054249e+02,9.484992027282714844e+00,7.649187743663787842e-02,-2.677215635776519775e-01,3.550000000000000000e+02
3.939585212143792887e+02,3.544980076237552566e+02,4.394172037370226462e+02,4.612198902484378777e+02,3.385002116225587088e+02,3.449250060034901253e+02,4.951621024756022962e+02,3.638399874372917111e+02,9.484992027282714844e+00,7.649187743663787842e-02,-2.677215635776519775e-01,3.560000000000000000e+02
3.581190372619166737e+02,3.206809146248051547e+02,3.950300665317627136e+02,4.769844954798245453e+02,3.016783958503729082e+02,3.036061179493772215e+02,5.752440698740829248e+02,3.217076812677041744e+02,9.484992027282714844e+00,7.649187743663787842e-02,-2.677215635776519775e-01,3.570000000000000000e+02
3.864857466361645493e+02,3.549038184615710634e+02,4.219989837188550155e+02,4.208184336659614928e+02,3.217543314023205312e+02,3.311997102057430311e+02,4.944337218355212826e+02,3.835936505281497375e+02,9.484992027282714844e+00,7.649187743663787842e-02,-2.677215635776519775e-01,3.580000000000000000e+02
4.337222781351156300e+02,4.085702904013814987e+02,4.777707970599149121e+02,3.681726074145481107e+02,3.665885762255129521e+02,3.834851039657878573e+02,3.610060493353812490e+02,4.586223755476166843e+02,9.484992027282714844e+00,7.649187743663787842e-02,-2.677215635776519775e-01,3.590000000000000000e+02
4.287480581779382192e+02,4.046771346106761484e+02,4.807726713717056555e+02,3.892641659217624692e+02,3.709413277282219497e+02,3.824105985474598128e+02,3.555444147677189903e+02,4.382934148803251446e+02,9.484992027282714844e+00,7.649187743663787842e-02,-2.677215635776519775e-01,3.600000000000000000e+02
3.730362215442437446e+02,3.434723381250732928e+02,4.228257813146628905e+02,4.516484097507709521e+02,3.274681638174370164e+02,3.245345178093848517e+02,4.818939313346054405e+02,3.466723266239860095e+02,9.484992027282714844e+00,7.649187743663787842e-02,-2.677215635776519775e-01,3.610000000000000000e+02
3.384555278430489125e+02,3.029670463646252756e+02,3.802186174047747045e+02,4.650598776066326536e+02,2.958017215688887518e+02,2.856764814294583630e+02,5.620388696366862860e+02,3.061707322675283649e+02,9.484992027282714844e+00,7.649187743663787842e-02,-2.677215635776519775e-01,3.620000000000000000e+02
3.684762195732182590e+02,3.330702917334710946e+02,4.078147885746802785e+02,4.063632883691316238e+02,3.184150236683562980e+02,3.158961728094509454e+02,4.817824491277424386e+02,3.680179404719965532e+02,9.484992027282714844e+00,7.649187743663787842e-02,-2.677215635776519775e-01,3.630000000000000000e+02
4.185446260325115873e+02,3.874142012183365296e+02,4.625969565941923065e+02,3.520219644208918908e+02,3.615857063965813722e+02,3.700303547887233435e+02,3.489189790590025950e+02,4.419272413036305807e+02,9.484992027282714844e+00,7.649187743663787842e-02,-2.677215635776519775e-01,3.640000000000000000e+02
4.167270490092050750e+02,3.868186015412793495e+02,4.628949828887416515e+02,3.732120729432572261e+02,3.621820992109132931e+02,3.697458012716670055e+02,3.447224292398022953e+02,4.209864240995593718e+02,9.484992027282714844e+00,7.649187743663787842e-02,-2.677215635776519775e-01,3.650000000000000000e+02
3.617064028207969386e+02,3.282064589895016979e+02,4.018800629563556868e+02,4.380837213676786632e+02,3.146013229031741503e+02,3.116607994995865738e+02,4.727169685127591947e+02,3.291133872721256921e+02,9.484992027282714844e+00,7.649187743663787842e-02,-2.677215635776519775e-01,3.660000000000000000e+02
3.246819694047007943e+02,2.888304234544630162e+02,3.578946946816577110e+02,4.558293541863677092e+02,2.788125467222198495e+02,2.722353388884366723e+02,5.534156768631946761e+02,2.880685502652559080e+02,9.484992027282714844e+00,7.649187743663787842e-02,-2.677215635776519775e-01,3.670000000000000000e+02
3.521934592003235593e+02,3.191947459006842109e+02,3.865763172525694245e+02,4.017008025714676478e+02,2.987814922139223199e+02,3.024243366677110316e+02,4.732641404680034611e+02,3.497418406823198893e+02,9.484992027282714844e+00,7.649187743663787842e-02,-2.677215635776519775e-01,3.680000000000000000e+02
4.020246342461905442e+02,3.724932535804982763e+02,4.438621781336478307e+02,3.506516000588235329e+02,3.426757779598119669e+02,3.573959157647914253e+02,3.423238864335871767e+02,4.249571746702786186e+02,9.484992027282714844e+00,7.649187743663787842e-02,-2.677215635776519775e-01,3.690000000000000000e+02
4.007226945927613997e+02,3.691167399655896588e+02,4.468114389188631321e+02,3.733368054734382895e+02,3.472177470009992248e+02,3.586891158120924956e+02,3.412305885941314045e+02,4.071697207798933960e+02,9.484992027282714844e+00,1.529837548732757568e-01,-2.677215635776519775e-01,3.700000000000000000e+02
3.451093760690200725e+02,3.076282303535626852e+02,3.881705867997516179e+02,4.382199173725311994e+02,3.050909136017726269e+02,3.028645316046022344e+02,4.704433082042087335e+02,3.197076785901008407e+02,9.484992027282714844e+00,1.529837548732757568e-01,-2.677215635776519775e-01,3.710000000000000000e+02
3.074856993978173705e+02,2.675486364279204281e+02,3.459051389961678069e+02,4.550896439018979436e+02,2.737957177269563545e+02,2.658571255137940170e+02,5.503525029624433955e+02,2.825265794268780155e+02,9.484992027282714844e+00,1.529837548732757568e-01,-2.677215635776519775e-01,3.720000000000000000e+02
3.359923004410447902e+02,2.989899040672898991e+02,3.750063792463988648e+02,3.994976959077466745e+02,2.943381744497601176e+02,2.969547373990717460e+02,4.701923705608496675e+02,3.452519305959285703e+02,9.484992027282714844e+00,1.529837548732757568e-01,-2.677215635776519775e-01,3.730000000000000000e+02
3.879261343981925165e+02,3.529825359856113209e+02,4.317119055540388217e+02,3.460195208744771662e+02,3.343770507655572146e+02,3.497270794678406673e+02,3.405508688408590388e+02,4.182214793749953969e+02,9.484992027282714844e+00,1.529837548732757568e-01,-2.677215635776519775e-01,3.740000000000000000e+02
3.890480620852686116e+02,3.504303323414496845e+02,4.343068005483728484e+02,3.648011588368026423e+02,3.342533905270611285e+02,3.460377065041539026e+02,3.399970462243363727e+02,3.965724631666162168e+02,9.484992027282714844e+00,1.529837548732757568e-01,-2.677215635776519775e-01,3.750000000000000000e+02
3.363822615091557964e+02,2.927494276925281156e+02,3.758736090135716950e+02,4.248509373181295814e+02,2.900220358233273146e+02,2.844855530703935074e+02,4.690352162819908699e+02,3.053410576339811087e+02,9.484992027282714844e+00,1.529837548732757568e-01,-2.677215635776519775e-01,3.760000000000000000e+02
3.012756706701184157e+02,2.586170474636383005e+02,3.336492249213843024e+02,4.376243867253942881e+02,2.589521924118671450e+02,2.431134723906579893e+02,5.499221567156782839e+02,2.655133430713758571e+02,9.484992027282714844e+00,1.529837548732757568e-01,-2.677215635776519775e-01,3.770000000000000000e+02
3.291953710346278967e+02,2.927110612790202140e+02,3.625928311898023821e+02,3.800949649680842413e+02,2.814218285813985858e+02,2.726733264030190185e+02,4.717227255259203957e+02,3.279962081742778537e+02,9.484992027282714844e+00,1.529837548732757568e-01,-2.677215635776519775e-01,3.780000000000000000e+02
3.765635261940333294e+02,3.433217588427069131e+02,4.197190733898023609e+02,3.270077217698053573e+02,3.256132647253543837e+02,3.272279632881836733e+02,3.434661885759851430e+02,4.034337654164555715e+02,9.484992027282714844e+00,1.529837548732757568e-01,-2.677215635776519775e-01,3.790000000000000000e+02
3.724378274533519289e+02,3.346107652339196648e+02,4.234434799128212035e+02,3.476982587428647093e+02,3.299224338215790340e+02,3.272683564542239765e+02,3.438428846558526857e+02,3.847433081452327315e+02,9.484992027282714844e+00,1.529837548732757568e-01,-2.677215635776519775e-01,3.800000000000000000e+02
3.182117044389306102e+02,2.715459749131114222e+02,3.663834467282285914e+02,4.101010512198990909e+02,2.866612999127610237e+02,2.688160467378329486e+02,4.740655635706498288e+02,2.946651500433727051e+02,9.484992027282714844e+00,1.529837548732757568e-01,-2.677215635776519775e-01,3.810000000000000000e+02
2.857091624096647138e+02,2.332308600725373253e+02,3.254551655711111380e+02,4.248653530432420666e+02,2.530265529466996668e+02,2.288238100663074874e+02,5.552515959333832143e+02,2.546171233717177529e+02,9.484992027282714844e+00,1.529837548732757568e-01,-2.677215635776519775e-01,3.820000000000000000e+02
3.169372744399515796e+02,2.652366414655407425e+02,3.549825769329108880e+02,3.687505955467277090e+02,2.724007084511249559e+02,2.591891371557867387e+02,4.755291608494153479e+02,3.166679917632427532e+02,9.484992027282714844e+00,1.529837548732757568e-01,-2.677215635776519775e-01,3.830000000000000000e+02
3.659555460297779064e+02,3.180487167115425109e+02,4.112882427283620927e+02,3.167108993657457177e+02,3.138561819794995245e+02,3.149869064460508525e+02,3.450324498273839708e+02,3.910359693863210850e+02,9.484992027282714844e+00,1.529837548732757568e-01,-2.677215635776519775e-01,3.840000000000000000e+02
3.628521843025955604e+02,3.149898033186618704e+02,4.135153129354221164e+02,3.381900569137505954e+02,3.152466370031688712e+02,3.163899198474682635e+02,3.435170000297512161e+02,3.706991950073715998e+02,9.484992027282714844e+00,1.529837548732757568e-01,-2.677215635776519775e-01,3.850000000000000000e+02
3.096870446761604398e+02,2.571264025891723577e+02,3.557305056986078853e+02,4.010456741460075136e+02,2.702658333850558847e+02,2.591971551746974001e+02,4.718076376233366318e+02,2.801727395775887999e+02,9.484992027282714844e+00,1.529837548732757568e-01,-2.677215635776519775e-01,3.860000000000000000e+02
2.767966407360290759e+02,2.218319128496077610e+02,3.149638918156779255e+02,4.157394526251155185e+02,2.374315750354071497e+02,2.209033043001545593e+02,5.495642968413594645e+02,2.414158492654314614e+02,9.484992027282714844e+00,1.529837548732757568e-01,-2.677215635776519775e-01,3.870000000000000000e+02
3.058976853722706437e+02,2.556550343031412922e+02,3.446089195785025368e+02,3.594260408265690785e+02,2.583344388161131064e+02,2.528903319742603344e+02,4.681427361983223818e+02,3.045153108615049860e+02,9.484992027282714844e+00,1.529837548732757568e-01,-2.677215635776519775e-01,3.880000000000000000e+02
3.543093847417840152e+02,3.101549370335123967e+02,4.015736259937839350e+02,3.071782552157674218e+02,3.008601554615379428e+02,3.095902510569285369e+02,3.380269998257863335e+02,3.789990016388328513e+02,9.484992027282714844e+00,1.529837548732757568e-01,-2.677215635776519775e-01,3.890000000000000000e+02
3.535365061593765859e+02,3.083524752042721957e+02,4.056513639964832691e+02,3.287437217433616752e+02,3.037156519485870376e+02,3.115165294197868207e+02,3.375817537058173912e+02,3.590109842266683700e+02,9.484992027282714844e+00,1.529837548732757568e-01,-2.677215635776519775e-01,3.900000000000000000e+02
3.033983808864140883e+02,2.508086769619767438e+02,3.495931078087451169e+02,3.923386200490058400e+02,2.605242814586672466e+02,2.550287439312232891e+02,4.664752232899772935e+02,2.688329111071070656e+02,9.484992027282714844e+00,1.147378161549568176e-01,-3.824593424797058105e-01,3.910000000000000000e+02
2.732725748811499216e+02,2.148973520167346578e+02,3.089080685185399489e+02,4.084626127508963691e+02,2.281436680176702794e+02,2.163969074616252328e+02,5.458759586250525899e+02,2.285233538239044719e+02,9.484992027282714844e+00,1.147378161549568176e-01,-3.824593424797058105e-01,3.920000000000000000e+02
3.068690214672242291e+02,2.489820941104189842e+02,3.379124485690554138e+02,3.534315462982340250e+02,2.481799112182779936e+02,2.453264582807823899e+02,4.649497018105612369e+02,2.881314968328224495e+02,9.484992027282714844e+00,1.147378161549568176e-01,-3.824593424797058105e-01,3.930000000000000000e+02
3.600862596572696930e+02,3.066601449402078288e+02,3.945838989615731407e+02,3.021084886667667888e+02,2.891226172366004903e+02,2.959760995217511663e+02,3.338532554969278863e+02,3.588672464835181017e+02,9.484992027282714844e+00,1.147378161549568176e-01,-3.824593424797058105e-01,3.940000000000000000e+02
3.600055493172258139e+02,3.102141263165831333e+02,3.982663169128936715e+02,3.241603872644045623e+02,2.897122420050945948e+02,2.910413817226144602e+02,3.319721633913286496e+02,3.362403940130534465e+02,9.484992027282714844e+00,1.147378161549568176e-01,-3.824593424797058105e-01,3.950000000000000000e+02
3.058201492733787745e+02,2.564524133679587976e+02,3.414457030867852154e+02,3.872392904666121467e+02,2.449728635766587104e+02,2.298252359442121815e+02,4.603874747948575532e+02,2.454337382830271963e+02,9.484992027282714844e+00,1.147378161549568176e-01,-3.824593424797058105e-01,3.960000000000000000e+02
