F3,F4,C3,C4,P3,P4,Cz,Pz,Accel_x,Accel_y,Accel_z,Sample
4.547473508864641190e-12,-1.818989403545856476e-11,2.273736754432320595e-12,-6.366462912410497665e-12,4.547473508864641190e-13,2.819433575496077538e-11,5.093170329928398132e-11,1.591615728102624416e-11,9.484992027282714844e+00,1.529837548732757568e-01,-3.059675097465515137e-01,0.000000000000000000e+00
-4.540652712484566109e+02,-3.839946298467584711e+02,-3.949208093131810529e+02,-1.828997303478699905e+02,-3.794698639575431116e+02,-2.545247245711061623e+02,-9.709744166957898415e+02,-5.922622699299947726e+02,9.484992027282714844e+00,1.529837548732757568e-01,-3.059675097465515137e-01,1.000000000000000000e+00
-6.111061562447353026e+02,-5.248592898533092921e+02,-4.983925913632701850e+02,-3.941713607439837688e+02,-5.271953054568061816e+02,-3.475117730380616194e+02,-2.039240278181498979e+03,-7.258886888853103301e+02,9.484992027282714844e+00,1.529837548732757568e-01,-3.059675097465515137e-01,2.000000000000000000e+00
-5.070474716721946606e+02,-4.549425428650815775e+02,-3.718784706039414232e+02,-8.926118110056213482e+02,-4.671649832980422161e+02,-2.978295527317563938e+02,-3.148190888448340957e+03,-5.588603099513234156e+02,9.484992027282714844e+00,1.529837548732757568e-01,-3.059675097465515137e-01,3.000000000000000000e+00
-3.897554905761530790e+02,-3.798480987828074831e+02,-2.686735190573913314e+02,-1.726546248006234919e+03,-3.949377764528860553e+02,-2.494287159958093980e+02,-3.941104911855016326e+03,-4.990944905554902107e+02,9.484992027282714844e+00,1.529837548732757568e-01,-3.059675097465515137e-01,4.000000000000000000e+00
-3.509185151077917908e+02,-3.655880549641408379e+02,-2.462489718149058717e+02,-2.371102254730668392e+03,-3.891775112994321262e+02,-2.505017390300226907e+02,-4.163761932969153349e+03,-5.495818289355197521e+02,9.484992027282714844e+00,1.529837548732757568e-01,-3.059675097465515137e-01,5.000000000000000000e+00
-2.341016079532519143e+02,-2.630148326195715072e+02,-1.323491670900898498e+02,-2.324456733805523072e+03,-3.194571004329709467e+02,-1.704187936267289842e+02,-4.307131300039632151e+03,-4.217873328198136278e+02,9.484992027282714844e+00,1.529837548732757568e-01,-3.059675097465515137e-01,6.000000000000000000e+00
3.525186488241979532e+01,-9.892302380231285497e+00,1.336095323658119014e+02,-1.892792099139131096e+03,-1.133106045581416765e+02,5.526877241109741590e+01,-4.929889139249897198e+03,-1.070480538315559897e+02,9.484992027282714844e+00,1.529837548732757568e-01,-3.059675097465515137e-01,7.000000000000000000e+00
2.723128306575936222e+02,2.091555872350306799e+02,3.711272390805720534e+02,-1.895874332888598474e+03,7.650307637069818156e+01,2.595844743356560684e+02,-5.648374848951732929e+03,1.034296828123653995e+02,9.484992027282714844e+00,1.529837548732757568e-01,-3.059675097465515137e-01,8.000000000000000000e+00
3.419779190083331741e+02,2.615201541440997062e+02,4.545662859616550122e+02,-2.584384686505079117e+03,1.257523089599619652e+02,3.053425952478428371e+02,-5.892293356068051253e+03,1.096872159370789177e+02,9.484992027282714844e+00,1.529837548732757568e-01,-3.059675097465515137e-01,9.000000000000000000e+00
4.212550821352574530e+02,3.207969329898182878e+02,5.289053130461038563e+02,-3.288929077352102468e+03,1.794601475131664756e+02,3.490333036228621495e+02,-6.179385768995493891e+03,1.499950302442184693e+02,9.484992027282714844e+00,1.529837548732757568e-01,-3.059675097465515137e-01,1.000000000000000000e+01
6.714005826084794535e+02,5.517081365001442919e+02,7.469619500148942279e+02,-3.318444683152559264e+03,3.785458015217423053e+02,5.577161499593444205e+02,-7.103733089637616104e+03,3.878933267824299946e+02,9.484992027282714844e+00,1.529837548732757568e-01,-3.059675097465515137e-01,1.100000000000000000e+01
9.212200062536785481e+02,7.946966693617710007e+02,1.002486920956249151e+03,-2.910406154364345639e+03,5.790346161217191820e+02,7.873317526585829000e+02,-7.988198696534116607e+03,6.631161275777408264e+02,9.484992027282714844e+00,1.529837548732757568e-01,-3.059675097465515137e-01,1.200000000000000000e+01
1.029495772201713635e+03,9.023289856286605755e+02,1.161707691267374003e+03,-2.931417950223156367e+03,6.649497794696417259e+02,8.923516665369891143e+02,-8.339367256112518589e+03,8.037602575726125451e+02,9.484992027282714844e+00,1.529837548732757568e-01,-3.059675097465515137e-01,1.300000000000000000e+01
1.170946433249688880e+03,1.028550058197631643e+03,1.301822949347373651e+03,-3.669877189267904214e+03,7.931647005442971476e+02,1.014234613737007066e+03,-9.017609150788191982e+03,8.889608506201395812e+02,9.484992027282714844e+00,1.529837548732757568e-01,-3.059675097465515137e-01,1.400000000000000000e+01
1.396009531878215739e+03,1.233277254871581817e+03,1.474843913080828543e+03,-4.405660249466223831e+03,9.966928121581859159e+02,1.205042383323386730e+03,-1.016816590833456212e+04,1.019122887545565163e+03,9.484992027282714844e+00,1.529837548732757568e-01,-3.059675097465515137e-01,1.500000000000000000e+01
1.489223762840820882e+03,1.331128377980225423e+03,1.591836197227346474e+03,-4.457288500923170432e+03,1.072005934240816032e+03,1.283728625987366968e+03,-1.062771603795488409e+04,1.155605021189453737e+03,9.484992027282714844e+00,1.529837548732757568e-01,-3.059675097465515137e-01,1.600000000000000000e+01
1.561479394547777019e+03,1.415786562263586347e+03,1.732586001364534241e+03,-4.125785133585749463e+03,1.126221517363861949e+03,1.352409526500555330e+03,-1.084138672647181374e+04,1.336221038237445555e+03,9.484992027282714844e+00,1.529837548732757568e-01,-3.059675097465515137e-01,1.700000000000000000e+01
1.924612352621224773e+03,1.755619676477065923e+03,2.050706067311183233e+03,-4.006806905505086434e+03,1.453157615728474866e+03,1.683158087928457689e+03,-1.240615867552181953e+04,1.622792235762515475e+03,9.484992027282714844e+00,1.529837548732757568e-01,-3.059675097465515137e-01,1.800000000000000000e+01
2.242137641203025851e+03,2.039306917140276255e+03,2.296469390508956167e+03,-3.934849314570392380e+03,1.745975727301515235e+03,1.961957022376729128e+03,-1.398255167909987358e+04,1.789031982703040740e+03,9.484992027282714844e+00,1.529837548732757568e-01,-3.059675097465515137e-01,1.900000000000000000e+01
2.043567945269998972e+03,1.850252316477390877e+03,2.195133697486253368e+03,-3.531027042344115216e+03,1.565474957598161609e+03,1.766749094568210921e+03,-1.335081269413236987e+04,1.670528841834732248e+03,9.484992027282714844e+00,1.529837548732757568e-01,-3.059675097465515137e-01,2.000000000000000000e+01
1.981359449565509522e+03,1.797653371826214652e+03,2.211587388712730899e+03,-3.221620132912306417e+03,1.498140995019525690e+03,1.703147593747625706e+03,-1.321044632449186611e+04,1.719703817665161978e+03,9.484992027282714844e+00,1.529837548732757568e-01,-3.059675097465515137e-01,2.100000000000000000e+01
2.789096249511898350e+03,2.549571254469912674e+03,2.818171604432442564e+03,-3.469704791432286129e+03,2.217595285330961360e+03,2.440104260873146359e+03,-1.683214961944432798e+04,2.297755539341615076e+03,9.484992027282714844e+00,1.529837548732757568e-01,-3.059675097465515137e-01,2.200000000000000000e+01
3.224778622225122490e+03,2.960502643275901391e+03,3.179907772296669009e+03,-3.485810810493896497e+03,2.605909281380522771e+03,2.836270522140487174e+03,-1.884947787594542751e+04,2.610634227837393155e+03,9.484992027282714844e+00,1.529837548732757568e-01,-3.059675097465515137e-01,2.300000000000000000e+01
1.433707246218463752e+03,1.332490207093778281e+03,2.083136333914281749e+03,-2.196202030093710619e+03,9.785995893246117703e+02,1.196382710758295389e+03,-1.105261771048201626e+04,1.617602041465141156e+03,9.484992027282714844e+00,1.529837548732757568e-01,-3.059675097465515137e-01,2.400000000000000000e+01
-1.746674617143974501e+03,-1.562907505583840020e+03,8.200061964122505742e+01,-1.725955822343587442e+02,-1.912070279515544371e+03,-1.709733633684937104e+03,3.033902063887738223e+03,-1.288902342686160409e+02,9.523238182067871094e+00,1.529837548732757568e-01,-2.677215635776519775e-01,2.500000000000000000e+01
-3.501425195994673686e+03,-3.148249439372224515e+03,-9.864365874324532797e+02,9.717450238821757011e+02,-3.513790155380364467e+03,-3.307068848897828957e+03,1.107246718571086240e+04,-1.006364318299860997e+03,9.523238182067871094e+00,1.529837548732757568e-01,-2.677215635776519775e-01,2.600000000000000000e+01
-3.054354517414558813e+03,-2.718087867351607656e+03,-6.197633444873783901e+02,8.966014932754137590e+02,-3.115963447682875085e+03,-2.888696588468882510e+03,9.495092655828575516e+03,-6.303908129333623265e+02,9.523238182067871094e+00,1.529837548732757568e-01,-2.677215635776519775e-01,2.700000000000000000e+01
-2.294451434185407379e+03,-2.008991313472047295e+03,-6.061894458032952571e+01,7.195601181207580339e+02,-2.427153178853077407e+03,-2.188717399866081450e+03,6.269082554471317962e+03,-1.424424665095599494e+02,9.523238182067871094e+00,1.529837548732757568e-01,-2.677215635776519775e-01,2.800000000000000000e+01
-2.421282378823054387e+03,-2.123125958586349498e+03,-1.074213156021813802e+02,1.061511459681923498e+03,-2.539541967028158524e+03,-2.310963512233818619e+03,6.402959487326603266e+03,-2.300947898943310292e+02,9.523238182067871094e+00,1.529837548732757568e-01,-2.677215635776519775e-01,2.900000000000000000e+01
-2.642985064763642640e+03,-2.328750991834353954e+03,-2.370242128924544431e+02,1.414953979128675655e+03,-2.743484749329771603e+03,-2.526954892087223016e+03,6.697077696996018858e+03,-3.710969332305243142e+02,9.523238182067871094e+00,1.529837548732757568e-01,-2.677215635776519775e-01,3.000000000000000000e+01
-2.314984907632788236e+03,-2.021070389551900689e+03,9.319922452586979489e+00,1.410921227408577124e+03,-2.455893593990836507e+03,-2.231231952662927142e+03,5.120382560218991784e+03,-1.223375434069546372e+02,9.523238182067871094e+00,1.529837548732757568e-01,-2.677215635776519775e-01,3.100000000000000000e+01
-1.967971023698889439e+03,-1.682097568536470590e+03,3.048684327462594865e+02,1.381407096028071237e+03,-2.148867750894104574e+03,-1.902333605752559379e+03,4.335033436160951169e+03,1.939056482073260668e+02,9.523238182067871094e+00,1.529837548732757568e-01,-2.677215635776519775e-01,3.200000000000000000e+01
-1.966464881472227717e+03,-1.661137383270663577e+03,3.755686133286210406e+02,1.577867746278068125e+03,-2.143678419316751388e+03,-1.887670917315952920e+03,5.058945375756366957e+03,2.675275401322402331e+02,9.523238182067871094e+00,1.529837548732757568e-01,-2.677215635776519775e-01,3.300000000000000000e+01
-1.957579980638053712e+03,-1.649201657969751523e+03,4.100319063574709162e+02,1.811489581885119378e+03,-2.123731165913857240e+03,-1.878877440514555474e+03,4.708467393034457928e+03,2.555951542933067913e+02,9.523238182067871094e+00,1.529837548732757568e-01,-2.677215635776519775e-01,3.400000000000000000e+01
-1.774156110280100165e+03,-1.484543601824532061e+03,5.352506275998218825e+02,1.933437724494099257e+03,-1.951051466810011789e+03,-1.717035463933572828e+03,2.996109073714972055e+03,3.376081018461429721e+02,9.523238182067871094e+00,1.529837548732757568e-01,-2.677215635776519775e-01,3.500000000000000000e+01
-1.632575718932356722e+03,-1.346727074028878633e+03,6.607824166628455487e+02,2.014297688297968534e+03,-1.828958849004102376e+03,-1.585971707427077035e+03,2.220916115211648503e+03,4.824251173654131435e+02,9.523238182067871094e+00,1.529837548732757568e-01,-2.677215635776519775e-01,3.600000000000000000e+01
-1.544005570117303705e+03,-1.246077023481347624e+03,7.866216734921461011e+02,2.095777143957893713e+03,-1.759099414933593380e+03,-1.497180929865901817e+03,2.580985188232045402e+03,6.474033753857027023e+02,9.523238182067871094e+00,1.529837548732757568e-01,-2.677215635776519775e-01,3.700000000000000000e+01
-1.377405054604280167e+03,-1.082117412300038268e+03,9.537856900636934370e+02,2.178102697920745868e+03,-1.610655074056873673e+03,-1.345626998851032567e+03,2.337340538107089742e+03,7.950993697271392193e+02,9.523238182067871094e+00,1.529837548732757568e-01,-2.677215635776519775e-01,3.800000000000000000e+01
-1.230223271017271145e+03,-9.554583043838238154e+02,1.067750044506590712e+03,2.318659426008480295e+03,-1.473412436444098830e+03,-1.227605020642886529e+03,1.333061501625176334e+03,8.425994189834424333e+02,9.523238182067871094e+00,1.529837548732757568e-01,-2.677215635776519775e-01,3.900000000000000000e+01
-1.195486041065049449e+03,-9.388331141829723947e+02,1.091379769914873123e+03,2.498210813052517551e+03,-1.443500919320942103e+03,-1.217189458679542895e+03,5.366291648423764400e+02,8.304002652992745652e+02,9.523238182067871094e+00,1.529837548732757568e-01,-2.677215635776519775e-01,4.000000000000000000e+01
-1.121898511234842317e+03,-8.742727890273820321e+02,1.167713059251391542e+03,2.589025241366750379e+03,-1.386723470380499748e+03,-1.158479174925065763e+03,-7.817789069028185622e+01,9.290743545928827416e+02,9.523238182067871094e+00,1.529837548732757568e-01,-2.677215635776519775e-01,4.100000000000000000e+01
-9.225854053229554665e+02,-6.808949812373093664e+02,1.360628531185341672e+03,2.586111449560163237e+03,-1.211890691013587912e+03,-9.678407071448748411e+02,-6.470367447502362666e+02,1.151501602563442930e+03,9.523238182067871094e+00,1.529837548732757568e-01,-2.677215635776519775e-01,4.200000000000000000e+01
-7.532417839012750846e+02,-5.182309753433710284e+02,1.529671783261503151e+03,2.642781376747967442e+03,-1.048889392572280940e+03,-8.019673294157155397e+02,-7.516365749513538503e+02,1.303633698186159108e+03,9.523238182067871094e+00,1.529837548732757568e-01,-2.677215635776519775e-01,4.300000000000000000e+01
-7.146352953690327467e+02,-4.899795367091951448e+02,1.574636173243193070e+03,2.814878009202453541e+03,-9.951358521529562040e+02,-7.678018985124588198e+02,-9.679863915732744317e+02,1.296357685991907601e+03,9.523238182067871094e+00,1.529837548732757568e-01,-2.677215635776519775e-01,4.400000000000000000e+01
-6.929997900944281355e+02,-4.822703493349495147e+02,1.585690840514427236e+03,2.974962456539576124e+03,-9.639665125619615083e+02,-7.574209368774722861e+02,-2.136653982578980049e+03,1.278542897658813672e+03,9.523238182067871094e+00,1.529837548732757568e-01,-2.677215635776519775e-01,4.500000000000000000e+01
-5.763987211302016931e+02,-3.749770181864448659e+02,1.680988822911864872e+03,3.021646697834290990e+03,-8.604727359072035142e+02,-6.524946768606500882e+02,-2.923253429936690281e+03,1.397868876347797595e+03,9.523238182067871094e+00,1.529837548732757568e-01,-2.677215635776519775e-01,4.600000000000000000e+01
-4.068258348632118668e+02,-2.044846085044060828e+02,1.844708064449834637e+03,3.019487641114887538e+03,-7.123603933572176174e+02,-4.865099348110270512e+02,-1.961875993756402750e+03,1.597509508879838450e+03,9.523238182067871094e+00,1.529837548732757568e-01,-2.677215635776519775e-01,4.700000000000000000e+01
-2.839628774675371687e+02,-7.735526540239902715e+01,1.973141299884179716e+03,3.088419424853030250e+03,-5.971417046347416999e+02,-3.629574123409963704e+02,-1.561726946684830182e+03,1.716316052368828878e+03,9.523238182067871094e+00,1.529837548732757568e-01,-2.677215635776519775e-01,4.800000000000000000e+01
-2.383030301742717256e+02,-3.252757593529634050e+01,2.012117164868108830e+03,3.243426386341883244e+03,-5.441726849605283860e+02,-3.210425598737075461e+02,-4.010727512017272602e+03,1.706759306033806979e+03,9.523238182067871094e+00,1.529837548732757568e-01,-2.677215635776519775e-01,4.900000000000000000e+01
-2.104874942007104437e+02,-7.629921637484130770e+00,2.018976669645728407e+03,3.386470367459307454e+03,-5.136081149908468433e+02,-3.009505120761435819e+02,-5.486579486732505757e+03,1.688361314264510838e+03,9.523238182067871094e+00,1.529837548732757568e-01,-2.677215635776519775e-01,5.000000000000000000e+01
-1.227425143400756724e+02,8.335340726978665771e+01,2.089960187751746616e+03,3.436704448113148374e+03,-4.416018777640756525e+02,-2.167018963202366422e+02,-4.649681125423226149e+02,1.787239434006734882e+03,9.523238182067871094e+00,1.529837548732757568e-01,-2.677215635776519775e-01,5.100000000000000000e+01
2.548863729104550657e+01,2.405426128573236610e+02,2.235394469939405099e+03,3.434104795254570035e+03,-3.160964532634455963e+02,-6.406132530999366281e+01,8.591702601535591384e+03,1.968850784618243551e+03,9.523238182067871094e+00,1.147378161549568176e-01,-2.677215635776519775e-01,5.200000000000000000e+01
1.488202890371497915e+02,3.692318645332533720e+02,2.361812407783917024e+03,3.486760095381321662e+03,-1.990179704575982669e+02,6.482332862187877254e+01,1.349038824584252143e+04,2.082442966491886182e+03,9.523238182067871094e+00,1.147378161549568176e-01,-2.677215635776519775e-01,5.300000000000000000e+01
1.859984887014752530e+02,4.027572725981092390e+02,2.396230305412374946e+03,3.626025053253445549e+03,-1.475735254166041841e+02,9.986535707856626232e+01,1.198390940815326394e+04,2.065010985406678628e+03,9.523238182067871094e+00,1.147378161549568176e-01,-2.677215635776519775e-01,5.400000000000000000e+01
1.981840013391363300e+02,4.074087073934551881e+02,2.394370805447051680e+03,3.756813403077392650e+03,-1.230562626278868947e+02,1.028322391374534845e+02,9.584402530459261470e+03,2.035222441733523056e+03,9.523238182067871094e+00,1.147378161549568176e-01,-2.677215635776519775e-01,5.500000000000000000e+01
2.775582555388955370e+02,4.857296057839577088e+02,2.458435335242242218e+03,3.792821478996334008e+03,-5.119111309077561600e+01,1.765077759395801422e+02,9.988579345753390953e+03,2.125548223870370748e+03,9.523238182067871094e+00,1.147378161549568176e-01,-2.677215635776519775e-01,5.600000000000000000e+01
4.201672733744671291e+02,6.359522685182150781e+02,2.595871544097573860e+03,3.775511803028368831e+03,7.341901948218742291e+01,3.217103197370965972e+02,1.091520404150593822e+04,2.299205219915876569e+03,9.523238182067871094e+00,1.147378161549568176e-01,-2.677215635776519775e-01,5.700000000000000000e+01
5.336569538031244520e+02,7.566547778980132080e+02,2.710059795286731514e+03,3.816499361589294040e+03,1.794297903156170833e+02,4.376275358484529079e+02,1.008436384623517733e+04,2.401675728294148939e+03,9.523238182067871094e+00,1.147378161549568176e-01,-2.677215635776519775e-01,5.800000000000000000e+01
5.658486823648747759e+02,7.877938459564931009e+02,2.734353250124032456e+03,3.943546539238957394e+03,2.177081665510337416e+02,4.633591301390807757e+02,8.772625471803896289e+03,2.374387984834891085e+03,9.523238182067871094e+00,1.147378161549568176e-01,-2.677215635776519775e-01,5.900000000000000000e+01
5.753766550674606606e+02,7.924828560272432014e+02,2.724083309115740121e+03,4.062466332801076078e+03,2.292678198492976662e+02,4.608030741483222528e+02,8.402197504287982156e+03,2.334679439017508685e+03,9.523238182067871094e+00,1.147378161549568176e-01,-2.677215635776519775e-01,6.000000000000000000e+01
6.497945114093920438e+02,8.681369112684014908e+02,2.779900848274820873e+03,4.087020605431746390e+03,2.889657310280592810e+02,5.264431104986686023e+02,8.397039147925352154e+03,2.413457307324082194e+03,9.523238182067871094e+00,1.147378161549568176e-01,-2.677215635776519775e-01,6.100000000000000000e+01
7.855772216755129875e+02,1.010725105158117572e+03,2.908655663298065519e+03,4.057580453018003482e+03,4.033775053636491066e+02,6.590372211573118193e+02,8.121689159657132222e+03,2.576085236642605196e+03,9.523238182067871094e+00,1.147378161549568176e-01,-2.677215635776519775e-01,6.200000000000000000e+01
8.933001669634123800e+02,1.119454991027279902e+03,3.014012585299208695e+03,4.085109529482339894e+03,5.025614209864029363e+02,7.641093409438333310e+02,7.743152171426718269e+03,2.671499019693244918e+03,9.523238182067871094e+00,1.147378161549568176e-01,-2.677215635776519775e-01,6.300000000000000000e+01
9.199909675789042467e+02,1.135617944919400088e+03,3.029914269657148907e+03,4.197757314297751691e+03,5.363430855513581719e+02,7.843715773163823997e+02,7.170831668895722032e+03,2.640231423047959197e+03,9.523238182067871094e+00,1.147378161549568176e-01,-2.677215635776519775e-01,6.400000000000000000e+01
9.215509888865424273e+02,1.123438428915636450e+03,3.012129491124090237e+03,4.302419082228887419e+03,5.433625570323017655e+02,7.771381784801124013e+02,6.302680709369313263e+03,2.595676369740095652e+03,9.523238182067871094e+00,1.147378161549568176e-01,-2.677215635776519775e-01,6.500000000000000000e+01
9.858646331970829806e+02,1.181183093518950272e+03,3.060927951297105665e+03,4.314620855711709737e+03,5.982677917480159522e+02,8.353162537879424008e+02,5.772263462465902194e+03,2.667641818328960653e+03,9.523238182067871094e+00,1.147378161549568176e-01,-2.677215635776519775e-01,6.600000000000000000e+01
1.111584108283985643e+03,1.306582565075102139e+03,3.181896234986217678e+03,4.276194163542714705e+03,7.089325898439999492e+02,9.597054377168426527e+02,5.944546976007211924e+03,2.822910127544286752e+03,9.523238182067871094e+00,1.147378161549568176e-01,-2.677215635776519775e-01,6.700000000000000000e+01
1.209682212337297415e+03,1.402089321753183185e+03,3.277686732136473438e+03,4.297264674727248348e+03,8.050661628218633723e+02,1.056684867677972761e+03,6.086908860624592307e+03,2.910126680975911313e+03,9.523238182067871094e+00,1.147378161549568176e-01,-2.677215635776519775e-01,6.800000000000000000e+01
1.226748069379354092e+03,1.410354025344341380e+03,3.282592665113031671e+03,4.403206748616647928e+03,8.350103873731995918e+02,1.066872667304793140e+03,5.620417993774570277e+03,2.869152534762459254e+03,9.523238182067871094e+00,1.147378161549568176e-01,-2.677215635776519775e-01,6.900000000000000000e+01
1.219617818809771052e+03,1.392440509259352666e+03,3.253585741351136221e+03,4.499321128001631223e+03,8.371427178485230343e+02,1.048481794322852011e+03,5.062569499136814557e+03,2.815178220204036279e+03,9.523238182067871094e+00,1.147378161549568176e-01,-2.677215635776519775e-01,7.000000000000000000e+01
1.277121208735903338e+03,1.443373944636012084e+03,3.291587012359506389e+03,4.502020168703646050e+03,8.866125197618300717e+02,1.097868088894708080e+03,4.915157079427010103e+03,2.879187033156772486e+03,9.523238182067871094e+00,1.147378161549568176e-01,-2.677215635776519775e-01,7.100000000000000000e+01
1.397147845593987768e+03,1.562265670700741566e+03,3.402444276281337352e+03,4.454472136597401914e+03,9.914987365862521074e+02,1.216318183511483539e+03,4.845123944608997590e+03,3.026363554487029432e+03,9.523238182067871094e+00,1.147378161549568176e-01,-2.677215635776519775e-01,7.200000000000000000e+01
1.489492619047234712e+03,1.653838244973138899e+03,3.489746091459900072e+03,4.467051839060333805e+03,1.082147758772385032e+03,1.308841585273149576e+03,4.606169398095329598e+03,3.105355898635809808e+03,9.523238182067871094e+00,1.147378161549568176e-01,-2.677215635776519775e-01,7.300000000000000000e+01
1.500255694532917005e+03,1.659120580475450879e+03,3.488186711602956620e+03,4.564861400578763096e+03,1.107529721974947961e+03,1.316291396129719942e+03,4.449232565196683936e+03,3.058765837363690025e+03,9.523238182067871094e+00,1.147378161549568176e-01,-2.677215635776519775e-01,7.400000000000000000e+01
1.485235467867074249e+03,1.636943504824444517e+03,3.452564705132539075e+03,4.652874057232766063e+03,1.105158866022751681e+03,1.296412980285428375e+03,4.217549918372926186e+03,3.001580415795389854e+03,9.523238182067871094e+00,1.147378161549568176e-01,-2.677215635776519775e-01,7.500000000000000000e+01
1.531766782276145932e+03,1.683253378541558504e+03,3.481126419592515504e+03,4.647182280835256279e+03,1.149204217224311378e+03,1.343099807429729935e+03,3.575378061717079618e+03,3.061372956085330770e+03,9.523238182067871094e+00,1.147378161549568176e-01,-2.677215635776519775e-01,7.600000000000000000e+01
1.638424599518595642e+03,1.797641197516171360e+03,3.580456928126864113e+03,4.591278176489828184e+03,1.248525651040094090e+03,1.457319840293001107e+03,3.195508401743723880e+03,3.203452431252113456e+03,9.523238182067871094e+00,1.147378161549568176e-01,-2.677215635776519775e-01,7.700000000000000000e+01
1.718112905753037921e+03,1.882219045595465104e+03,3.656940931308068230e+03,4.596326575277777010e+03,1.333909231489904869e+03,1.546332291908257957e+03,3.692592011524189729e+03,3.279618105566895792e+03,9.523238182067871094e+00,1.147378161549568176e-01,-2.677215635776519775e-01,7.800000000000000000e+01
1.718941499776763521e+03,1.877232225730633218e+03,3.645827348765484203e+03,4.687527973880623904e+03,1.352530370847291579e+03,1.550898451453459074e+03,3.771817433326306855e+03,3.231146785276185255e+03,9.523238182067871094e+00,1.147378161549568176e-01,-2.677215635776519775e-01,7.900000000000000000e+01
1.696051058313692465e+03,1.845529349001593800e+03,3.601110339572499925e+03,4.769563498972191155e+03,1.340730771037273826e+03,1.526247984794416880e+03,2.282557586863311826e+03,3.168239236746722327e+03,9.523238182067871094e+00,1.147378161549568176e-01,-2.677215635776519775e-01,8.000000000000000000e+01
1.736187111833471818e+03,1.886375992713425603e+03,3.622346174512004382e+03,4.758744282457748341e+03,1.374139809116088827e+03,1.565758645920527442e+03,1.513267821109966462e+03,3.218293915339042542e+03,9.523238182067871094e+00,1.147378161549568176e-01,-2.677215635776519775e-01,8.100000000000000000e+01
1.838945539678691148e+03,1.997627672812374385e+03,3.717578575166519840e+03,4.697875126307519167e+03,1.462839766863093701e+03,1.671453450705329033e+03,4.562926864163102437e+03,3.350494879110919101e+03,9.523238182067871094e+00,1.147378161549568176e-01,-2.677215635776519775e-01,8.200000000000000000e+01
1.917445530712312575e+03,2.078797315226159299e+03,3.791387156064831743e+03,4.695667742390081003e+03,1.537231480061896946e+03,1.750325389276911665e+03,9.888974434849027602e+03,3.417430272896796396e+03,9.523238182067871094e+00,1.529837548732757568e-01,-1.912296712398529053e-01,8.300000000000000000e+01
1.917838607448677067e+03,2.070977337213466399e+03,3.776597060716785563e+03,4.776488566078983240e+03,1.545132334039526995e+03,1.743402827606776782e+03,1.271632501076550034e+04,3.358448504650211817e+03,9.523238182067871094e+00,1.529837548732757568e-01,-1.912296712398529053e-01,8.400000000000000000e+01
1.893559528316772230e+03,2.037956246512460439e+03,3.727385076657785248e+03,4.848210761788478521e+03,1.524297118598165071e+03,1.708492565513270620e+03,1.180094276329160130e+04,3.284208869870893068e+03,9.523238182067871094e+00,1.529837548732757568e-01,-1.912296712398529053e-01,8.500000000000000000e+01
1.931429307317914208e+03,2.076115764220084202e+03,3.743304303173321841e+03,4.830255797658340271e+03,1.549214578439738489e+03,1.740410575964570398e+03,1.042661985016775543e+04,3.323643547799505541e+03,9.523238182067871094e+00,1.529837548732757568e-01,-1.912296712398529053e-01,8.600000000000000000e+01
2.030991254409645080e+03,2.180325897023667949e+03,3.830494343136954740e+03,4.764211189309244219e+03,1.627883174861231510e+03,1.839772170124638478e+03,1.070556524815799094e+04,3.445344402207995245e+03,9.523238182067871094e+00,1.529837548732757568e-01,-1.912296712398529053e-01,8.700000000000000000e+01
2.104373663733375452e+03,2.252143356407187639e+03,3.894067884955487443e+03,4.756036581099277100e+03,1.692299966431782650e+03,1.912945331841816824e+03,1.121457285876447713e+04,3.502304286972206228e+03,9.523238182067871094e+00,1.529837548732757568e-01,-1.912296712398529053e-01,8.800000000000000000e+01
2.098192654810487966e+03,2.236914408642427588e+03,3.870916051302291635e+03,4.829951760161646234e+03,1.693923179542155140e+03,1.902150502726381546e+03,1.060426703956628808e+04,3.437440250869579359e+03,9.523238182067871094e+00,1.529837548732757568e-01,-1.912296712398529053e-01,8.900000000000000000e+01
2.068496220253536194e+03,2.198627474171431459e+03,3.816699549828839281e+03,4.894704408408548261e+03,1.670822589317918755e+03,1.864432157687414929e+03,9.744565348282265404e+03,3.362680941496024388e+03,9.523238182067871094e+00,1.529837548732757568e-01,-1.912296712398529053e-01,9.000000000000000000e+01
2.103380577511721185e+03,2.230538650403565953e+03,3.827818654757369586e+03,4.869129509056410825e+03,1.694929117082372613e+03,1.891610273139511264e+03,9.600922092293289097e+03,3.402621570808436445e+03,9.523238182067871094e+00,1.529837548732757568e-01,-1.912296712398529053e-01,9.100000000000000000e+01
2.200179171251775188e+03,2.326607920071167428e+03,3.908670727963638456e+03,4.794702551080101330e+03,1.773167928048850627e+03,1.983644371207357835e+03,9.722623264672765799e+03,3.521822637530407519e+03,9.523238182067871094e+00,1.529837548732757568e-01,-1.912296712398529053e-01,9.200000000000000000e+01
2.268428068380605055e+03,2.390312545867286190e+03,3.966642548566129335e+03,4.779258962317442638e+03,1.838142751076976765e+03,2.049754543549789560e+03,9.472422278290896429e+03,3.574451382265010579e+03,9.523238182067871094e+00,1.529837548732757568e-01,-1.912296712398529053e-01,9.300000000000000000e+01
2.255127666449691333e+03,2.367963349117687358e+03,3.939968976048518016e+03,4.848179777394151643e+03,1.840896088137081733e+03,2.034297383757575517e+03,9.017297723353500260e+03,3.505671324232177540e+03,9.523238182067871094e+00,1.529837548732757568e-01,-1.912296712398529053e-01,9.400000000000000000e+01
2.217761179445758444e+03,2.323268056920644995e+03,3.882419370263902238e+03,4.909030249750365329e+03,1.817944527303121504e+03,1.993107250113152531e+03,8.683884623350713809e+03,3.426196195307457401e+03,9.523238182067871094e+00,1.529837548732757568e-01,-1.912296712398529053e-01,9.500000000000000000e+01
2.243616183482143697e+03,2.350473722108201400e+03,3.889027921216480991e+03,4.879372758782505116e+03,1.840103187961298772e+03,2.015829900430960151e+03,8.388139917081540261e+03,3.458941308788292190e+03,9.523238182067871094e+00,1.529837548732757568e-01,-1.912296712398529053e-01,9.600000000000000000e+01
2.328824866483668757e+03,2.444666899258526428e+03,3.964990823028607792e+03,4.800459492117029185e+03,1.914022672958496059e+03,2.102357819051333536e+03,8.035393373858692939e+03,3.570224378192825043e+03,9.523238182067871094e+00,1.529837548732757568e-01,-1.912296712398529053e-01,9.700000000000000000e+01
2.385284817665291030e+03,2.507575180125219049e+03,4.018090142159496281e+03,4.779262842530521084e+03,1.972807388652403915e+03,2.163360892934728781e+03,7.888282110559990542e+03,3.616986691434468412e+03,9.523238182067871094e+00,1.529837548732757568e-01,-1.912296712398529053e-01,9.800000000000000000e+01
2.363907136433582309e+03,2.482356872751816354e+03,3.985878344100388858e+03,4.839979319939880952e+03,1.968523455752153950e+03,2.143405507607864820e+03,8.111138437971932035e+03,3.544332164825615109e+03,9.523238182067871094e+00,1.529837548732757568e-01,-1.912296712398529053e-01,9.900000000000000000e+01
2.321750904392121356e+03,2.432066036860418990e+03,3.922093475193437371e+03,4.891440388504443035e+03,1.938251758685158165e+03,2.097218137425858004e+03,8.249877442858432914e+03,3.461302704441109199e+03,9.523238182067871094e+00,1.529837548732757568e-01,-1.912296712398529053e-01,1.000000000000000000e+02
2.341605870748554935e+03,2.452486333791729521e+03,3.922286806817920478e+03,4.854566794985317756e+03,1.952978599036398919e+03,2.114898153547550464e+03,7.856356799294159828e+03,3.490679620538618110e+03,9.523238182067871094e+00,1.529837548732757568e-01,-1.912296712398529053e-01,1.010000000000000000e+02
2.417553905476776890e+03,2.539462788276076026e+03,3.991822458730692233e+03,4.771996661399192817e+03,2.020583126176495171e+03,2.198497551192852370e+03,7.556347299683713572e+03,3.599875323768231283e+03,9.523238182067871094e+00,1.529837548732757568e-01,-1.912296712398529053e-01,1.020000000000000000e+02
2.464019718524466953e+03,2.594968408059584817e+03,4.039139818019107679e+03,4.748532234431299003e+03,2.075911418484080968e+03,2.258625009468991720e+03,8.436617511218213622e+03,3.646004591468361468e+03,9.523238182067871094e+00,1.529837548732757568e-01,-1.912296712398529053e-01,1.030000000000000000e+02
2.434223961552468609e+03,2.563737700705472889e+03,4.002917450221841136e+03,4.805884297922511905e+03,2.070692286725647591e+03,2.236874657939558801e+03,1.022052915469933214e+04,3.573246914264632323e+03,9.484992027282714844e+00,1.529837548732757568e-01,-1.912296712398529053e-01,1.040000000000000000e+02
2.384718849568442693e+03,2.509911140488196452e+03,3.936238449103295807e+03,4.852873565120000421e+03,2.039509397415424246e+03,2.186797108860496792e+03,1.135043385436245080e+04,3.489532456485706916e+03,9.484992027282714844e+00,1.529837548732757568e-01,-1.912296712398529053e-01,1.050000000000000000e+02
2.397972345625638809e+03,2.527337963660103014e+03,3.932187738384879594e+03,4.811646076561432892e+03,2.051459994689716495e+03,2.200700060833333282e+03,1.116335604151806183e+04,3.516561464094398616e+03,9.484992027282714844e+00,1.529837548732757568e-01,-1.912296712398529053e-01,1.060000000000000000e+02
2.469617420844605476e+03,2.609654485798600945e+03,3.995270006801963063e+03,4.725267123633469964e+03,2.114203043099441402e+03,2.281894082335494204e+03,1.061699465121847243e+04,3.621322122378953736e+03,9.484992027282714844e+00,1.529837548732757568e-01,-1.912296712398529053e-01,1.070000000000000000e+02
2.514957440871967265e+03,2.660426396219474100e+03,4.035924349749999692e+03,4.698590790721768826e+03,2.162770120451715229e+03,2.339766508176243406e+03,1.057593921996996141e+04,3.662114551054688945e+03,9.484992027282714844e+00,1.529837548732757568e-01,-1.912296712398529053e-01,1.080000000000000000e+02
2.485561826355097764e+03,2.627287746924070689e+03,3.994563974207803312e+03,4.753789751788732246e+03,2.149364250864372934e+03,2.315882989251205345e+03,1.077202434778490715e+04,3.584888549426599639e+03,9.484992027282714844e+00,1.529837548732757568e-01,-1.912296712398529053e-01,1.090000000000000000e+02
2.435177783956949952e+03,2.573575967983747887e+03,3.923702202825905260e+03,4.799641835407011058e+03,2.110111689632620255e+03,2.265263485490342191e+03,1.074622943042642510e+04,3.497739328345906870e+03,9.484992027282714844e+00,1.529837548732757568e-01,-1.912296712398529053e-01,1.100000000000000000e+02
2.444804164212232536e+03,2.590466672370119340e+03,3.915459454722929877e+03,4.757275053638757527e+03,2.115610840336026286e+03,2.279120544788226653e+03,1.058163425961538451e+04,3.520993009931733468e+03,9.484992027282714844e+00,1.529837548732757568e-01,-1.912296712398529053e-01,1.110000000000000000e+02
2.511762632598780328e+03,2.671884794464652714e+03,3.974532427920731607e+03,4.669011160983034642e+03,2.173297861395582913e+03,2.357479716556577387e+03,1.045536358832814221e+04,3.620614899775187041e+03,9.484992027282714844e+00,1.529837548732757568e-01,-1.912296712398529053e-01,1.120000000000000000e+02
2.555443999629177142e+03,2.722699395274766175e+03,4.011494123867380040e+03,4.639659430753065863e+03,2.217104667911882188e+03,2.409129559126127788e+03,1.034030717107515738e+04,3.654755493722144820e+03,9.484992027282714844e+00,1.529837548732757568e-01,-1.912296712398529053e-01,1.130000000000000000e+02
2.529822010513764326e+03,2.688592971670551378e+03,3.966489369962922865e+03,4.691048655591733223e+03,2.199213434272324321e+03,2.378120926935381704e+03,1.028974520182844572e+04,3.569576507548652899e+03,9.484992027282714844e+00,1.529837548732757568e-01,-1.912296712398529053e-01,1.140000000000000000e+02
2.486603829514327572e+03,2.630592895331954878e+03,3.893079391926223252e+03,4.731754419418824909e+03,2.156570013904519328e+03,2.320836401308672521e+03,1.034811690499694851e+04,3.474233460905006268e+03,9.484992027282714844e+00,1.529837548732757568e-01,-1.912296712398529053e-01,1.150000000000000000e+02
2.502915163126429434e+03,2.641390422340682562e+03,3.885137238813754266e+03,4.684249382049838459e+03,2.159785717385035241e+03,2.327864907029261303e+03,1.032217741826803649e+04,3.490999076540763781e+03,9.484992027282714844e+00,1.529837548732757568e-01,-1.912296712398529053e-01,1.160000000000000000e+02
2.573812394237221270e+03,2.716668944744758392e+03,3.946428800175910965e+03,4.592492102891099421e+03,2.215592438048597614e+03,2.399512108918717786e+03,1.009415997620644339e+04,3.586973764647628741e+03,9.484992027282714844e+00,1.529837548732757568e-01,-1.912296712398529053e-01,1.170000000000000000e+02
2.617618896439882064e+03,2.759631500208310172e+03,3.984037111233756150e+03,4.560610910159711239e+03,2.258346704267954010e+03,2.446308044445355335e+03,9.894226305229463833e+03,3.619940822914531964e+03,9.484992027282714844e+00,1.529837548732757568e-01,-1.912296712398529053e-01,1.180000000000000000e+02
2.587885680145363949e+03,2.715209475717873374e+03,3.936772070535163039e+03,4.608243463738541323e+03,2.241893441412576976e+03,2.413001074978727047e+03,9.924986677536138814e+03,3.535402533909882550e+03,9.484992027282714844e+00,1.529837548732757568e-01,-1.912296712398529053e-01,1.190000000000000000e+02
2.538157667353309080e+03,2.647506059209147224e+03,3.860467902584275635e+03,4.643284685136870394e+03,2.203283038408685115e+03,2.354318333188180532e+03,1.001822486733776168e+04,3.441522988621451077e+03,9.484992027282714844e+00,1.529837548732757568e-01,-1.912296712398529053e-01,1.200000000000000000e+02
2.548535930326315338e+03,2.650910460130837691e+03,3.850503900284956217e+03,4.589079903995103450e+03,2.210077688668687642e+03,2.358313731010657193e+03,9.921842161484182725e+03,3.458185759958623294e+03,9.484992027282714844e+00,1.529837548732757568e-01,-1.912296712398529053e-01,1.210000000000000000e+02
2.614338278350106066e+03,2.719289612236589164e+03,3.909400593667245630e+03,4.489804218657474848e+03,2.265844869181515151e+03,2.424398637761020382e+03,9.681655882357616065e+03,3.550632836246006264e+03,9.484992027282714844e+00,1.529837548732757568e-01,-1.912296712398529053e-01,1.220000000000000000e+02
2.651873370885220083e+03,2.756243473019207613e+03,3.943829355871479038e+03,4.449424011862257430e+03,2.305190674141673753e+03,2.464756169964151013e+03,9.531435482765336928e+03,3.578314177341593677e+03,9.484992027282714844e+00,1.529837548732757568e-01,-1.912296712398529053e-01,1.230000000000000000e+02
2.614371400442394133e+03,2.710191747411297001e+03,3.894006397898086107e+03,4.489312344014530936e+03,2.284136050365850224e+03,2.426352250723849465e+03,9.557260427580509713e+03,3.490027849478300141e+03,9.484992027282714844e+00,1.529837548732757568e-01,-1.912296712398529053e-01,1.240000000000000000e+02
2.556843011415998262e+03,2.645036499872263903e+03,3.814852105567181752e+03,4.520679395642155214e+03,2.240417769916488396e+03,2.364422285900152474e+03,9.614381779589666621e+03,3.394287822114138180e+03,9.484992027282714844e+00,1.529837548732757568e-01,-1.912296712398529053e-01,1.250000000000000000e+02
2.560103216879942465e+03,2.650855190881565704e+03,3.798454364256126610e+03,4.468449447764011893e+03,2.241468253532850213e+03,2.366529345281716814e+03,9.525968355225342748e+03,3.408827309419139965e+03,9.484992027282714844e+00,1.529837548732757568e-01,-1.912296712398529053e-01,1.260000000000000000e+02
2.620113953331590892e+03,2.720456570279106018e+03,3.847577124013389948e+03,4.374641504064441506e+03,2.292087239821761614e+03,2.432327034898353304e+03,9.306425835413770983e+03,3.498524126463134962e+03,9.484992027282714844e+00,1.529837548732757568e-01,-1.912296712398529053e-01,1.270000000000000000e+02
2.654645849270273629e+03,2.760296843548605921e+03,3.873561291789453207e+03,4.339416260896418862e+03,2.327874425625397635e+03,2.474128896449706190e+03,9.146819801186629775e+03,3.524511439608892488e+03,9.484992027282714844e+00,1.529837548732757568e-01,-1.912296712398529053e-01,1.280000000000000000e+02
2.616371170699154845e+03,2.718742773810375184e+03,3.818934209646310592e+03,4.382381992225756221e+03,2.303589127991023815e+03,2.437550956456124823e+03,9.162377527612788981e+03,3.435591778133618391e+03,9.446745872497558594e+00,1.912296712398529053e-01,-3.442134261131286621e-01,1.290000000000000000e+02
2.556977465744168967e+03,2.655797549915930631e+03,3.735974319868904786e+03,4.415586464230719685e+03,2.255740861673717518e+03,2.376348890634856616e+03,9.227611942689249190e+03,3.337996593850317822e+03,9.446745872497558594e+00,1.912296712398529053e-01,-3.442134261131286621e-01,1.300000000000000000e+02
2.555630703505185465e+03,2.659337432831313890e+03,3.714803173121730651e+03,4.364517807538643865e+03,2.252806570396390271e+03,2.378065734847008116e+03,9.143457427479384933e+03,3.348299678846338338e+03,9.446745872497558594e+00,1.912296712398529053e-01,-3.442134261131286621e-01,1.310000000000000000e+02
2.610058132349066000e+03,2.723062179535375435e+03,3.759921141253191308e+03,4.270142243563382181e+03,2.300708384367910185e+03,2.442776471645735910e+03,8.916878117243653833e+03,3.432969178380848462e+03,9.446745872497558594e+00,1.912296712398529053e-01,-3.442134261131286621e-01,1.320000000000000000e+02
2.639330298815515107e+03,2.754910131347518018e+03,3.784043806029259940e+03,4.232208401954357214e+03,2.334279489234065295e+03,2.482781810567291814e+03,8.755811641598287679e+03,3.455430582718855476e+03,9.446745872497558594e+00,1.912296712398529053e-01,-3.442134261131286621e-01,1.330000000000000000e+02
2.595672715868419800e+03,2.705536218331199962e+03,3.728506855678252577e+03,4.271775385821129021e+03,2.307332991114595643e+03,2.444200544351599547e+03,8.774001521959135061e+03,3.365202765240539975e+03,9.446745872497558594e+00,1.912296712398529053e-01,-3.442134261131286621e-01,1.340000000000000000e+02
2.531771307569955297e+03,2.638262330613596077e+03,3.644993760561142153e+03,4.302066638205635172e+03,2.256229899896668030e+03,2.381562510196484254e+03,8.837503095873185885e+03,3.267465094142395174e+03,9.446745872497558594e+00,1.912296712398529053e-01,-3.442134261131286621e-01,1.350000000000000000e+02
2.528903419530015071e+03,2.641957320083922241e+03,3.624544834058981905e+03,4.248252963644769807e+03,2.248749718782221862e+03,2.381759700401191822e+03,8.750816792614248698e+03,3.277218227439801467e+03,9.446745872497558594e+00,1.912296712398529053e-01,-3.442134261131286621e-01,1.360000000000000000e+02
2.584200370764213858e+03,2.707953144186551071e+03,3.670996660611585867e+03,4.151138904248968174e+03,2.290371639109525859e+03,2.443466364065370726e+03,8.526594692963844864e+03,3.360254764794687617e+03,9.446745872497558594e+00,1.912296712398529053e-01,-3.442134261131286621e-01,1.370000000000000000e+02
2.614425918628069667e+03,2.742389450003705406e+03,3.694906480111452765e+03,4.111030825295538307e+03,2.317929405566938840e+03,2.479204872884578890e+03,8.366888762691654847e+03,3.380552364734969615e+03,9.446745872497558594e+00,1.912296712398529053e-01,-3.442134261131286621e-01,1.380000000000000000e+02
2.572011992356492101e+03,2.695988013618896730e+03,3.637636964608106609e+03,4.148896677277334675e+03,2.287899364861014874e+03,2.436594938898203054e+03,8.383540862469546482e+03,3.288445605180511848e+03,9.446745872497558594e+00,1.912296712398529053e-01,-3.442134261131286621e-01,1.390000000000000000e+02
2.511055204728402259e+03,2.630656529254699763e+03,3.552999721769439475e+03,4.177447593030918142e+03,2.236447835490249417e+03,2.370626697483991393e+03,8.444475619035894852e+03,3.189446177964994604e+03,9.446745872497558594e+00,1.912296712398529053e-01,-3.442134261131286621e-01,1.400000000000000000e+02
2.511182417164334765e+03,2.632449926120765213e+03,3.532649065136177796e+03,4.122086710956998104e+03,2.229363486392256164e+03,2.367691810277795867e+03,8.356833906124804344e+03,3.198776080511891450e+03,9.446745872497558594e+00,1.912296712398529053e-01,-3.442134261131286621e-01,1.410000000000000000e+02
2.566676923537942002e+03,2.692901032603158001e+03,3.579376507983069587e+03,4.023566875568835712e+03,2.271581272489557705e+03,2.426882104470976628e+03,8.133083731263424852e+03,3.282482097629525924e+03,9.446745872497558594e+00,1.912296712398529053e-01,-3.442134261131286621e-01,1.420000000000000000e+02
2.594969329756580464e+03,2.721272965408781147e+03,3.603714245475090138e+03,3.980977897076310455e+03,2.300351206616929630e+03,2.461734367260886756e+03,7.973506973969042519e+03,3.304145197193030526e+03,9.446745872497558594e+00,1.912296712398529053e-01,-3.442134261131286621e-01,1.430000000000000000e+02
2.550932117317106531e+03,2.669453060701422146e+03,3.547428166051829976e+03,4.014947709544672762e+03,2.271551238455539533e+03,2.419353637424273074e+03,7.989622274991696031e+03,3.212957618394530073e+03,9.446745872497558594e+00,1.912296712398529053e-01,-3.442134261131286621e-01,1.440000000000000000e+02
2.488231711126617029e+03,2.598051977005452045e+03,3.463052059135500713e+03,4.039765050115476242e+03,2.220651227146910060e+03,2.352576522729922544e+03,8.050480014256825598e+03,3.113368576763396050e+03,9.446745872497558594e+00,1.912296712398529053e-01,-3.442134261131286621e-01,1.450000000000000000e+02
2.484952019994840157e+03,2.593543480102264766e+03,3.440997459698312014e+03,3.981785411087606917e+03,2.213780361099312358e+03,2.346354301920066064e+03,7.963783154176198877e+03,3.120180334405618851e+03,9.446745872497558594e+00,1.912296712398529053e-01,-3.442134261131286621e-01,1.460000000000000000e+02
2.536994502902234217e+03,2.649891634466568121e+03,3.485164661851925302e+03,3.880891664682947066e+03,2.255909898396762401e+03,2.400459600693162429e+03,7.741225316570200448e+03,3.199843339024808301e+03,9.446745872497558594e+00,1.912296712398529053e-01,-3.442134261131286621e-01,1.470000000000000000e+02
2.564322394132032514e+03,2.676926950024112102e+03,3.507440046127867390e+03,3.835981460610375052e+03,2.283496503448400290e+03,2.430119390639087214e+03,7.581901000062500316e+03,3.217249999072683295e+03,9.446745872497558594e+00,1.912296712398529053e-01,-3.442134261131286621e-01,1.480000000000000000e+02
2.520681880458897012e+03,2.624643442051279180e+03,3.449091850595640153e+03,3.869155652798860046e+03,2.252497091928474219e+03,2.383721065300675946e+03,7.596893716535716521e+03,3.123059016515142503e+03,9.446745872497558594e+00,1.912296712398529053e-01,-3.442134261131286621e-01,1.490000000000000000e+02
2.457110729234991140e+03,2.552206514800863260e+03,3.362641457200525110e+03,3.895242664374460219e+03,2.199495096833240495e+03,2.314889502660292237e+03,7.655773320873415287e+03,3.022102941794771141e+03,9.446745872497558594e+00,1.912296712398529053e-01,-3.442134261131286621e-01,1.500000000000000000e+02
2.452174150289302816e+03,2.545759074962511022e+03,3.340049597181718127e+03,3.839037757889399018e+03,2.190999488117939109e+03,2.308833939407426442e+03,7.566958530639614764e+03,3.028472704356896884e+03,9.446745872497558594e+00,1.912296712398529053e-01,-3.442134261131286621e-01,1.510000000000000000e+02
2.503799972276301560e+03,2.598662090233099661e+03,3.384856179821723799e+03,3.738853865307720298e+03,2.231687287902307617e+03,2.364208097995643584e+03,7.342694100261933272e+03,3.107830878659707651e+03,9.446745872497558594e+00,1.912296712398529053e-01,-3.442134261131286621e-01,1.520000000000000000e+02
2.531651304720085136e+03,2.620272543210675394e+03,3.406241478250579348e+03,3.693337596391874740e+03,2.258399485180267220e+03,2.393859429412396821e+03,7.182930826030466051e+03,3.124580134474456827e+03,9.446745872497558594e+00,1.912296712398529053e-01,-3.442134261131286621e-01,1.530000000000000000e+02
2.488101153290667298e+03,2.561446199398315002e+03,3.345392656041027294e+03,3.724833941479818805e+03,2.227371174993199020e+03,2.344532717069497266e+03,7.199547081987417187e+03,3.029125497226920743e+03,9.446745872497558594e+00,1.912296712398529053e-01,-3.442134261131286621e-01,1.540000000000000000e+02
2.424096400729341440e+03,2.483064304915474168e+03,3.258030631556685876e+03,3.748578765438724986e+03,2.174148529138795311e+03,2.270599963342548108e+03,7.261653837321344326e+03,2.926640943159906783e+03,9.446745872497558594e+00,1.912296712398529053e-01,-3.442134261131286621e-01,1.550000000000000000e+02
2.417553054796508604e+03,2.472958762822321660e+03,3.236780525825947734e+03,3.690393042738679924e+03,2.164510501945441320e+03,2.259718546328435878e+03,7.176447293261695449e+03,2.932011459758413366e+03,9.408499717712402344e+00,1.912296712398529053e-01,-3.442134261131286621e-01,1.560000000000000000e+02
2.464459062656280366e+03,2.525958427176656187e+03,3.282302038844841263e+03,3.589679504349042418e+03,2.204210843558151282e+03,2.312672183450989905e+03,6.955687055180498646e+03,3.011224285779394904e+03,9.408499717712402344e+00,1.912296712398529053e-01,-3.442134261131286621e-01,1.570000000000000000e+02
2.485139892276501996e+03,2.552072497581911193e+03,3.303114318975415699e+03,3.545104072795968023e+03,2.230753300707728158e+03,2.342634650730569774e+03,6.798920034484714051e+03,3.028271293463050824e+03,9.408499717712402344e+00,1.912296712398529053e-01,-3.442134261131286621e-01,1.580000000000000000e+02
2.435999483291865090e+03,2.501088526430938145e+03,3.242574908045055963e+03,3.578003098869855421e+03,2.198607644069694288e+03,2.294799487701287944e+03,6.816743767021273015e+03,2.932833094759815140e+03,9.408499717712402344e+00,1.912296712398529053e-01,-3.442134261131286621e-01,1.590000000000000000e+02
2.369907743270430728e+03,2.431139263211429352e+03,3.155573015296540234e+03,3.602822888637492724e+03,2.141753937630847759e+03,2.221713802029829822e+03,6.878380363398771806e+03,2.829230610332599099e+03,9.408499717712402344e+00,1.912296712398529053e-01,-3.442134261131286621e-01,1.600000000000000000e+02
2.362542018522665330e+03,2.426834485843894072e+03,3.131165925352728664e+03,3.545663707283205440e+03,2.127419994913996561e+03,2.210658971171724261e+03,6.793823049719749179e+03,2.831989515914176081e+03,9.408499717712402344e+00,1.912296712398529053e-01,-3.442134261131286621e-01,1.610000000000000000e+02
2.408516625736453989e+03,2.481597660035328772e+03,3.170607479323914049e+03,3.446643311744250241e+03,2.163511874249556968e+03,2.263243621091581190e+03,6.576203297002286490e+03,2.908294702529133701e+03,9.408499717712402344e+00,1.912296712398529053e-01,-3.442134261131286621e-01,1.620000000000000000e+02
2.429327399524403063e+03,2.507498181306437800e+03,3.187235375769830171e+03,3.404206035766851528e+03,2.187223890265587215e+03,2.293389697753022119e+03,6.422102984203234882e+03,2.924082221833162748e+03,9.408499717712402344e+00,1.912296712398529053e-01,-3.442134261131286621e-01,1.630000000000000000e+02
2.380331733148539570e+03,2.457502780460985377e+03,3.126033904544808138e+03,3.438460799521428271e+03,2.151991035366948381e+03,2.246777851181237565e+03,6.439506736156430634e+03,2.829336166526107263e+03,9.408499717712402344e+00,1.912296712398529053e-01,-3.442134261131286621e-01,1.640000000000000000e+02
2.311275440346254072e+03,2.389426549387317209e+03,3.038998760967677299e+03,3.463009976510042179e+03,2.092597008649663621e+03,2.175797742909957378e+03,6.499862378796446137e+03,2.726708571862577173e+03,9.408499717712402344e+00,1.912296712398529053e-01,-3.442134261131286621e-01,1.650000000000000000e+02
2.299401117198543943e+03,2.384436550265247661e+03,3.014030680431547808e+03,3.404140507168767726e+03,2.076842735848912525e+03,2.165488968393984578e+03,6.416466384124933029e+03,2.729197604326739565e+03,9.408499717712402344e+00,1.912296712398529053e-01,-3.442134261131286621e-01,1.660000000000000000e+02
2.345002926462526375e+03,2.434712455576060165e+03,3.054428049049935908e+03,3.302458388943935461e+03,2.110801731151804233e+03,2.214382044924249385e+03,6.201993029638635562e+03,2.803751159256600658e+03,9.408499717712402344e+00,1.912296712398529053e-01,-3.442134261131286621e-01,1.670000000000000000e+02
2.370099894922797830e+03,2.454438068118448882e+03,3.073825410087742057e+03,3.257091935087672937e+03,2.130603227943440288e+03,2.237059774070729873e+03,6.051070496842005014e+03,2.817033897625298323e+03,9.408499717712402344e+00,1.912296712398529053e-01,-3.442134261131286621e-01,1.680000000000000000e+02
2.324340121381911558e+03,2.397618928430128108e+03,3.014775343543386043e+03,3.289544342141179186e+03,2.092359825120894584e+03,2.184211090454772602e+03,6.071774080901608613e+03,2.720602916129117602e+03,9.408499717712402344e+00,1.912296712398529053e-01,-3.442134261131286621e-01,1.690000000000000000e+02
2.255235221621685923e+03,2.321232150191293385e+03,2.928147312693414278e+03,3.314426629582398164e+03,2.033622709642108475e+03,2.111477383437238132e+03,6.135993239448784152e+03,2.618614054690738612e+03,9.408499717712402344e+00,1.912296712398529053e-01,-3.442134261131286621e-01,1.700000000000000000e+02
2.243725614927258903e+03,2.307853622308145532e+03,2.902615527660374028e+03,3.256950664539024729e+03,2.020619503146581792e+03,2.101827542902948153e+03,6.055814750640149214e+03,2.623491710347003391e+03,9.408499717712402344e+00,1.912296712398529053e-01,-3.442134261131286621e-01,1.710000000000000000e+02
2.291407885474801333e+03,2.353357616394847355e+03,2.941482339928472356e+03,3.155547594383895557e+03,2.056044892161468397e+03,2.150836036429979686e+03,5.842913896070189367e+03,2.699840722727702996e+03,9.408499717712402344e+00,1.912296712398529053e-01,-3.442134261131286621e-01,1.720000000000000000e+02
2.317626572088060129e+03,2.373133972387290669e+03,2.958353451987737571e+03,3.108756463690873716e+03,2.075652630884539121e+03,2.173229845633385139e+03,5.692260650515014277e+03,2.713265194737355614e+03,9.408499717712402344e+00,1.912296712398529053e-01,-3.442134261131286621e-01,1.730000000000000000e+02
2.272814930023537272e+03,2.318982652296722335e+03,2.897730417459129058e+03,3.139404357900153173e+03,2.037173869210286739e+03,2.120241486855039057e+03,5.712004160578537267e+03,2.616250153557171870e+03,9.408499717712402344e+00,1.912296712398529053e-01,-3.442134261131286621e-01,1.740000000000000000e+02
2.207924026024184059e+03,2.245772623222685525e+03,2.811960030657667630e+03,3.163349347988887530e+03,1.978101654534472345e+03,2.046124648798836461e+03,5.774035986645860248e+03,2.513177701786510625e+03,9.408499717712402344e+00,1.912296712398529053e-01,-3.442134261131286621e-01,1.750000000000000000e+02
2.201365763546967173e+03,2.234929360566035029e+03,2.788000400543598516e+03,3.105978323809329595e+03,1.963820413517962606e+03,2.033478886349430468e+03,5.692421256005394753e+03,2.515462222675549128e+03,9.408499717712402344e+00,1.912296712398529053e-01,-3.442134261131286621e-01,1.760000000000000000e+02
2.248442242465692289e+03,2.280447217170111799e+03,2.827021686076560400e+03,3.005149153253680652e+03,1.998233552185719418e+03,2.079867458682745564e+03,5.481542825046838516e+03,2.588283714689568569e+03,9.408499717712402344e+00,1.912296712398529053e-01,-3.442134261131286621e-01,1.770000000000000000e+02
2.269086451804302669e+03,2.296346332538795195e+03,2.843234068737957841e+03,2.958122119881370509e+03,2.018773417935375619e+03,2.100649188148511257e+03,5.336139987983176979e+03,2.599723976179634974e+03,9.408499717712402344e+00,1.912296712398529053e-01,-3.442134261131286621e-01,1.780000000000000000e+02
2.219836051202298222e+03,2.236408357746633101e+03,2.782417095403609437e+03,2.986449052589813618e+03,1.982112202713135957e+03,2.045095566674809561e+03,5.361343215390446858e+03,2.503128579250039365e+03,9.408499717712402344e+00,1.912296712398529053e-01,-3.442134261131286621e-01,1.790000000000000000e+02
2.152577124271143020e+03,2.159857865567162207e+03,2.696629264058391982e+03,3.006732436965678971e+03,1.923440792435738331e+03,1.966987744225923052e+03,5.427193096337120551e+03,2.400990118324854848e+03,9.408499717712402344e+00,1.912296712398529053e-01,-3.442134261131286621e-01,1.800000000000000000e+02
2.141861469561341892e+03,2.150655343950540100e+03,2.672790486684553798e+03,2.947236703469852728e+03,1.908028902370515880e+03,1.951372502751986758e+03,5.348555740239780789e+03,2.403292433170449840e+03,9.408499717712402344e+00,1.912296712398529053e-01,-3.442134261131286621e-01,1.810000000000000000e+02
2.182944484562229718e+03,2.201194259073713056e+03,2.712976470674335360e+03,2.847591845538243433e+03,1.940961763460677957e+03,1.997307562167373817e+03,5.140684184017074585e+03,2.476044444830963585e+03,9.408499717712402344e+00,1.912296712398529053e-01,-3.442134261131286621e-01,1.820000000000000000e+02
2.198355075222444157e+03,2.221657243348286556e+03,2.730786205072833127e+03,2.803656207648329655e+03,1.959569499248704233e+03,2.019282841478595856e+03,4.997770939858208294e+03,2.488415858753501197e+03,9.408499717712402344e+00,1.912296712398529053e-01,-3.442134261131286621e-01,1.830000000000000000e+02
2.143560768698191623e+03,2.163573211549125062e+03,2.670141746283884459e+03,2.834804954564597210e+03,1.920431648445289738e+03,1.966381610747853756e+03,5.024919933760058484e+03,2.393742977287654412e+03,9.408499717712402344e+00,1.912296712398529053e-01,-3.442134261131286621e-01,1.840000000000000000e+02
2.069264504479400330e+03,2.087028854217736352e+03,2.583131873516789710e+03,2.857585175439958221e+03,1.860580899276448690e+03,1.893121513265375143e+03,5.093776943612916511e+03,2.294376405543298915e+03,9.408499717712402344e+00,1.912296712398529053e-01,-3.442134261131286621e-01,1.850000000000000000e+02
2.054047979595460220e+03,2.077533162834706218e+03,2.557859705741040216e+03,2.801354401660658823e+03,1.846497103277707538e+03,1.883136735778550246e+03,5.020044299512848738e+03,2.299992621265181697e+03,9.408499717712402344e+00,1.912296712398529053e-01,-3.442134261131286621e-01,1.860000000000000000e+02
2.096378255809035181e+03,2.127239539227588011e+03,2.595730714302420438e+03,2.705648047356111874e+03,1.881354689852706997e+03,1.932989394278802592e+03,4.817214833294116033e+03,2.375196372586554389e+03,9.484992027282714844e+00,1.912296712398529053e-01,-2.677215635776519775e-01,1.870000000000000000e+02
2.115088454479677239e+03,2.145881313252605196e+03,2.609441516546148705e+03,2.665462198427760995e+03,1.900301046998949005e+03,1.957659422351679495e+03,4.677274996006129186e+03,2.388048448009915774e+03,9.484992027282714844e+00,1.912296712398529053e-01,-2.677215635776519775e-01,1.880000000000000000e+02
2.061206818449120874e+03,2.086771259185138661e+03,2.544723849412141590e+03,2.700318513372342750e+03,1.860265825213483367e+03,1.908442165565560572e+03,4.705442620823016114e+03,2.292855839311763702e+03,9.484992027282714844e+00,1.912296712398529053e-01,-2.677215635776519775e-01,1.890000000000000000e+02
1.986028335755510852e+03,2.011876614769747448e+03,2.455708953545080476e+03,2.727517265475060867e+03,1.798753303766899080e+03,1.839091989683299289e+03,4.775172248318382117e+03,2.193255831460178342e+03,9.484992027282714844e+00,1.912296712398529053e-01,-2.677215635776519775e-01,1.900000000000000000e+02
1.968861391308807015e+03,2.005009569837261097e+03,2.429777399174565289e+03,2.675974195931536997e+03,1.781334215612437674e+03,1.830546937074074322e+03,4.703417692075992818e+03,2.198464833989637100e+03,9.484992027282714844e+00,1.912296712398529053e-01,-2.677215635776519775e-01,1.910000000000000000e+02
2.006668013712477659e+03,2.055136307283214137e+03,2.467536987135948948e+03,2.583592715195695291e+03,1.812270217533229243e+03,1.879479690734892756e+03,4.503587689448798301e+03,2.272805210907706169e+03,9.484992027282714844e+00,1.912296712398529053e-01,-2.677215635776519775e-01,1.920000000000000000e+02
2.020872000451503027e+03,2.072540678226750970e+03,2.483042699301267930e+03,2.544469374840436103e+03,1.830206839170396506e+03,1.903066549135943205e+03,4.366669704125945827e+03,2.285740039562148013e+03,9.484992027282714844e+00,1.912296712398529053e-01,-2.677215635776519775e-01,1.930000000000000000e+02
1.968707288222337866e+03,2.013688709749269947e+03,2.422123715460479616e+03,2.578946840413486825e+03,1.792426741650868280e+03,1.852722100970521751e+03,4.396764655998860690e+03,2.191812867498408195e+03,9.484992027282714844e+00,1.912296712398529053e-01,-2.677215635776519775e-01,1.940000000000000000e+02
1.901206597755738130e+03,1.940027275829237169e+03,2.336018300787083717e+03,2.605624969100806993e+03,1.732389349439745729e+03,1.781067353149873270e+03,4.467340865653879519e+03,2.092612349053026264e+03,9.484992027282714844e+00,1.912296712398529053e-01,-2.677215635776519775e-01,1.950000000000000000e+02
1.890250201571807793e+03,1.931362289398451594e+03,2.310407449961903239e+03,2.553709457057525924e+03,1.713486868555185993e+03,1.769952561949021856e+03,4.396770125281133915e+03,2.096956579497985786e+03,9.484992027282714844e+00,1.912296712398529053e-01,-2.677215635776519775e-01,1.960000000000000000e+02
1.929395249148787116e+03,1.976500436590612935e+03,2.347392097553388794e+03,2.460576090317838407e+03,1.742001265593025437e+03,1.817441609345944016e+03,4.199568633880001471e+03,2.171461093703389452e+03,9.484992027282714844e+00,1.912296712398529053e-01,-2.677215635776519775e-01,1.970000000000000000e+02
1.943775704176684940e+03,1.990558153882705028e+03,2.362167244728181686e+03,2.419865486249552305e+03,1.757795390904897431e+03,1.839476607560129196e+03,4.066215841713426926e+03,2.186003137123595479e+03,9.484992027282714844e+00,1.912296712398529053e-01,-2.677215635776519775e-01,1.980000000000000000e+02
1.893016758450029101e+03,1.931774446204641208e+03,2.300269900190404314e+03,2.451515726493842521e+03,1.717369000119890188e+03,1.785561174376111467e+03,4.099540630046984916e+03,2.092803952997538545e+03,9.484992027282714844e+00,1.912296712398529053e-01,-2.677215635776519775e-01,1.990000000000000000e+02
1.826773926504991778e+03,1.857521249107302538e+03,2.214366310893240552e+03,2.473778411541538389e+03,1.655919876864981688e+03,1.708908151428599467e+03,4.172206296456135533e+03,1.993069534131603632e+03,9.484992027282714844e+00,1.912296712398529053e-01,-2.677215635776519775e-01,2.000000000000000000e+02
1.817509163269233795e+03,1.845539948002891379e+03,2.192593320001226402e+03,2.416648992004889351e+03,1.640137252262488801e+03,1.693186227429120663e+03,4.102579456985536126e+03,1.997454685089144732e+03,9.484992027282714844e+00,1.912296712398529053e-01,-2.677215635776519775e-01,2.010000000000000000e+02
1.860975642811281887e+03,1.888438703583681217e+03,2.235886539999492925e+03,2.319624340706203839e+03,1.675071305698254037e+03,1.737282678426767234e+03,3.906024283221842779e+03,2.072257354291040883e+03,9.484992027282714844e+00,1.912296712398529053e-01,-2.677215635776519775e-01,2.020000000000000000e+02
1.880599601876805082e+03,1.903824200666085289e+03,2.255084892113866772e+03,2.277726902148559020e+03,1.696017527172560222e+03,1.757602686350068325e+03,3.773905641684867987e+03,2.085581807531440063e+03,9.484992027282714844e+00,1.912296712398529053e-01,-2.677215635776519775e-01,2.030000000000000000e+02
1.832165268401783123e+03,1.846940040668432175e+03,2.193783410464498957e+03,2.310081668476254436e+03,1.658543549053219976e+03,1.703927880176448980e+03,3.808600424812659185e+03,1.990356856140829905e+03,9.484992027282714844e+00,1.912296712398529053e-01,-2.677215635776519775e-01,2.040000000000000000e+02
1.765179970663503809e+03,1.772926626459838644e+03,2.106769006873656963e+03,2.333393736421583526e+03,1.600244602424238110e+03,1.628216150864870087e+03,3.881916326490988467e+03,1.889281210446653859e+03,9.484992027282714844e+00,1.912296712398529053e-01,-2.677215635776519775e-01,2.050000000000000000e+02
1.754429080708232505e+03,1.761428619044538209e+03,2.084763979674499296e+03,2.277108329641449927e+03,1.587719640618785434e+03,1.612524500032555807e+03,3.813382030251159449e+03,1.892320856374220739e+03,9.484992027282714844e+00,1.912296712398529053e-01,-2.677215635776519775e-01,2.060000000000000000e+02
1.796021522525443743e+03,1.805090680280735342e+03,2.129702460860682550e+03,2.180855263914086208e+03,1.624130668500360571e+03,1.656540057506671474e+03,3.620371491515174966e+03,1.966052034516000276e+03,9.484992027282714844e+00,1.912296712398529053e-01,-2.677215635776519775e-01,2.070000000000000000e+02
1.813001547798561205e+03,1.817766571643541738e+03,2.152537218014621885e+03,2.140084142021697517e+03,1.645518258372075252e+03,1.678905009098187747e+03,3.493491259202870424e+03,1.981676025903360369e+03,9.523238182067871094e+00,1.147378161549568176e-01,-2.294756323099136353e-01,2.080000000000000000e+02
1.762755265861399039e+03,1.754464778370656404e+03,2.095734292753082173e+03,2.174957680000751225e+03,1.608796148374510722e+03,1.629567634591468504e+03,3.532427066194917643e+03,1.892418392808910539e+03,9.523238182067871094e+00,1.147378161549568176e-01,-2.294756323099136353e-01,2.090000000000000000e+02
1.696180052319275546e+03,1.675862590872312012e+03,2.011361737604468544e+03,2.202768334039804358e+03,1.549679766115807070e+03,1.558221905068622164e+03,3.608645868233026704e+03,1.796051798015098484e+03,9.523238182067871094e+00,1.147378161549568176e-01,-2.294756323099136353e-01,2.100000000000000000e+02
1.686579667785313177e+03,1.665243216554497167e+03,1.988172082718012007e+03,2.151717536392439342e+03,1.532874666048173367e+03,1.544795743914291961e+03,3.543579974046155257e+03,1.799218071430461578e+03,9.523238182067871094e+00,1.147378161549568176e-01,-2.294756323099136353e-01,2.110000000000000000e+02
1.727761511509871980e+03,1.713540748953385219e+03,2.029032298106100370e+03,2.059758537394991436e+03,1.563466433865408362e+03,1.588331306578707881e+03,3.354965025270331353e+03,1.870633632956653855e+03,9.523238182067871094e+00,1.147378161549568176e-01,-2.294756323099136353e-01,2.120000000000000000e+02
1.742517435067706174e+03,1.732832028296410272e+03,2.047526614027627147e+03,2.022256440465625019e+03,1.579982259764342871e+03,1.608252309368928763e+03,3.232234156177883051e+03,1.884008057174841724e+03,9.523238182067871094e+00,1.147378161549568176e-01,-2.294756323099136353e-01,2.130000000000000000e+02
1.689352579700582737e+03,1.678049723925387070e+03,1.988096624100350709e+03,2.059836269734519647e+03,1.539122007344827352e+03,1.556647017612639502e+03,3.275325458598209480e+03,1.792823452635808962e+03,9.523238182067871094e+00,1.147378161549568176e-01,-2.294756323099136353e-01,2.140000000000000000e+02
1.619580469469377022e+03,1.607324003856016134e+03,1.903070723353317135e+03,2.089359324373117943e+03,1.476304330652326144e+03,1.485391112825331675e+03,3.356807026700246752e+03,1.696407299980538482e+03,9.523238182067871094e+00,1.147378161549568176e-01,-2.294756323099136353e-01,2.150000000000000000e+02
1.606096282974549467e+03,1.599983271428537819e+03,1.879547517476824851e+03,2.039198272733896829e+03,1.457260983679954506e+03,1.474434047208355423e+03,3.297380801267139304e+03,1.703404653504009502e+03,9.523238182067871094e+00,1.147378161549568176e-01,-2.294756323099136353e-01,2.160000000000000000e+02
1.642698645201970976e+03,1.647561836459035703e+03,1.918228196229109471e+03,1.948731205413268071e+03,1.486696975688510747e+03,1.520870148771260119e+03,3.112985171639400960e+03,1.780073196927493882e+03,9.523238182067871094e+00,1.147378161549568176e-01,-2.294756323099136353e-01,2.170000000000000000e+02
1.652969171796794853e+03,1.666389678750192843e+03,1.933021077075790345e+03,1.913343847013245522e+03,1.501803684378626713e+03,1.542763038954866261e+03,2.992742647305142782e+03,1.795852783757853103e+03,9.523238182067871094e+00,1.147378161549568176e-01,-2.294756323099136353e-01,2.180000000000000000e+02
1.596226973759145949e+03,1.612484960898642385e+03,1.871200881019265580e+03,1.951729979092215672e+03,1.460221252068422928e+03,1.492394207392447470e+03,3.037658823716075403e+03,1.704956661440189691e+03,9.523238182067871094e+00,1.147378161549568176e-01,-2.294756323099136353e-01,2.190000000000000000e+02
1.524295557945832797e+03,1.541160733035571184e+03,1.786120417891229408e+03,1.980538594204095716e+03,1.398767570479637016e+03,1.422014972304983075e+03,3.121269494681609558e+03,1.610087954437945882e+03,9.523238182067871094e+00,1.147378161549568176e-01,-2.294756323099136353e-01,2.200000000000000000e+02
1.510746619621900209e+03,1.530478986425647463e+03,1.762776291462026165e+03,1.930412262639842993e+03,1.381578126579214086e+03,1.411408997141564896e+03,3.064820160065971322e+03,1.619013640358130488e+03,9.523238182067871094e+00,1.147378161549568176e-01,-2.294756323099136353e-01,2.210000000000000000e+02
1.549753375309102694e+03,1.573641871462513791e+03,1.801449567203525021e+03,1.841138051455420737e+03,1.411802536171579050e+03,1.457667502524391011e+03,2.884123084946232211e+03,1.695359817910028823e+03,9.523238182067871094e+00,1.147378161549568176e-01,-2.294756323099136353e-01,2.220000000000000000e+02
1.563884418005006864e+03,1.588086426847542953e+03,1.819306066099114560e+03,1.805381471526518908e+03,1.428743369096864626e+03,1.479227455547224963e+03,2.767117054613545406e+03,1.710510467053351249e+03,9.523238182067871094e+00,1.147378161549568176e-01,-2.294756323099136353e-01,2.230000000000000000e+02
1.511107126269080027e+03,1.529795065981092421e+03,1.765141635592464809e+03,1.840684699154396412e+03,1.391895528026053626e+03,1.428483647148442742e+03,2.813775715300596858e+03,1.621597336707551449e+03,9.523238182067871094e+00,1.147378161549568176e-01,-2.294756323099136353e-01,2.240000000000000000e+02
1.443513508688632783e+03,1.455585726514591443e+03,1.688806399548189574e+03,1.866323784319936976e+03,1.335799274973820957e+03,1.357204078541468789e+03,2.898225649680979132e+03,1.528562436137596478e+03,9.523238182067871094e+00,1.147378161549568176e-01,-2.294756323099136353e-01,2.250000000000000000e+02
1.435455580478178263e+03,1.446081776272026900e+03,1.671502289839703963e+03,1.815263223066266846e+03,1.321966625445544878e+03,1.344330543215169428e+03,2.842985563400180126e+03,1.534925672101219561e+03,9.523238182067871094e+00,1.147378161549568176e-01,-2.294756323099136353e-01,2.260000000000000000e+02
1.480253316560944995e+03,1.494232859555104596e+03,1.713393220528002530e+03,1.726297379363442815e+03,1.353918364127724544e+03,1.386391014269382822e+03,2.663918983765610847e+03,1.605948532383193879e+03,9.523238182067871094e+00,1.147378161549568176e-01,-2.294756323099136353e-01,2.270000000000000000e+02
1.499382991456108357e+03,1.513558047048803019e+03,1.732617308957288969e+03,1.690184833523006546e+03,1.371260031255702188e+03,1.402404852069678782e+03,2.547862579380341231e+03,1.617032895822494311e+03,9.523238182067871094e+00,1.147378161549568176e-01,-2.294756323099136353e-01,2.280000000000000000e+02
1.451168152872422070e+03,1.456473520833401835e+03,1.677927640405387137e+03,1.724353586918453857e+03,1.332422502489400358e+03,1.346665719633052049e+03,2.594063879173394071e+03,1.524860885526141601e+03,9.523238182067871094e+00,1.147378161549568176e-01,-2.294756323099136353e-01,2.290000000000000000e+02
1.386996169331059718e+03,1.379819376023501263e+03,1.600266605279455234e+03,1.749114743187916247e+03,1.273089024733508268e+03,1.273138069397945856e+03,2.677282367987302678e+03,1.427470197698409265e+03,9.523238182067871094e+00,1.147378161549568176e-01,-2.294756323099136353e-01,2.300000000000000000e+02
1.378385563731327693e+03,1.366205620238673418e+03,1.583121573477810216e+03,1.698441785419054213e+03,1.257762074826388016e+03,1.262078178311895954e+03,2.621867903776647381e+03,1.430523222461910791e+03,9.523238182067871094e+00,1.147378161549568176e-01,-2.294756323099136353e-01,2.310000000000000000e+02
1.418574420175690648e+03,1.409846125212877268e+03,1.626819833147404097e+03,1.612223848350566186e+03,1.290020480365022195e+03,1.309778567003005264e+03,2.445265093549744506e+03,1.501814894465872840e+03,9.523238182067871094e+00,1.147378161549568176e-01,-2.294756323099136353e-01,2.320000000000000000e+02
1.433707612929274546e+03,1.425689043870633213e+03,1.647331452561038532e+03,1.581980365661355791e+03,1.307122677881144227e+03,1.333164304936248300e+03,2.333854384950011990e+03,1.514802436087616115e+03,9.523238182067871094e+00,1.529837548732757568e-01,-2.294756323099136353e-01,2.330000000000000000e+02
1.384974478346548494e+03,1.369136743917195872e+03,1.591988723850724455e+03,1.624248179075397275e+03,1.267519815288243990e+03,1.283314065096146805e+03,2.384842521129347006e+03,1.423773781847227383e+03,9.523238182067871094e+00,1.529837548732757568e-01,-2.294756323099136353e-01,2.340000000000000000e+02
1.321052711579591232e+03,1.298712976232608071e+03,1.511773167682149506e+03,1.656724327554862612e+03,1.208576863713762577e+03,1.211981329350582200e+03,2.471912951766953483e+03,1.328163356664396815e+03,9.523238182067871094e+00,1.529837548732757568e-01,-2.294756323099136353e-01,2.350000000000000000e+02
1.311279632477237556e+03,1.294151309568091619e+03,1.490549994617981611e+03,1.610811516184253378e+03,1.194028022856322423e+03,1.199688415327426355e+03,2.419932180732538654e+03,1.334748714655383537e+03,9.523238182067871094e+00,1.529837548732757568e-01,-2.294756323099136353e-01,2.360000000000000000e+02
1.351036381614120728e+03,1.345016588568442330e+03,1.530076816260560463e+03,1.525524969123971459e+03,1.225739828693997879e+03,1.244666418067568429e+03,2.246473684652818520e+03,1.409131062459386158e+03,9.523238182067871094e+00,1.529837548732757568e-01,-2.294756323099136353e-01,2.370000000000000000e+02
1.367223895197197635e+03,1.364964737228688591e+03,1.548985663281012421e+03,1.493145923442927597e+03,1.242240488771243690e+03,1.265752518970414712e+03,2.137318577891544010e+03,1.423924800734157998e+03,9.523238182067871094e+00,1.529837548732757568e-01,-2.294756323099136353e-01,2.380000000000000000e+02
1.317944940080943525e+03,1.310883567471690185e+03,1.495861096306042782e+03,1.531515278605374078e+03,1.204156660052239204e+03,1.214940042269171045e+03,2.190336561902673566e+03,1.336065497134214638e+03,9.523238182067871094e+00,1.529837548732757568e-01,-2.294756323099136353e-01,2.390000000000000000e+02
1.251505011057626689e+03,1.241376930023439854e+03,1.420111817539534968e+03,1.559734328843234834e+03,1.147527054409065840e+03,1.143456518476648853e+03,2.280936804311243577e+03,1.245659064857697558e+03,9.523238182067871094e+00,1.529837548732757568e-01,-2.294756323099136353e-01,2.400000000000000000e+02
1.241228538917577680e+03,1.235003846604781756e+03,1.403422633874958137e+03,1.510965632670405284e+03,1.133017742961666954e+03,1.130408568949526398e+03,2.234053651906991945e+03,1.256241657330044291e+03,9.523238182067871094e+00,1.529837548732757568e-01,-2.294756323099136353e-01,2.410000000000000000e+02
1.283293363588921238e+03,1.282232835806255025e+03,1.446566150347397524e+03,1.425603260624509858e+03,1.162600262658957035e+03,1.173722211461678853e+03,2.065355718580340181e+03,1.331895190936944346e+03,9.523238182067871094e+00,1.529837548732757568e-01,-2.294756323099136353e-01,2.420000000000000000e+02
1.300828435529353555e+03,1.299260184777078393e+03,1.467855808853918461e+03,1.395387944590652296e+03,1.177775514830234897e+03,1.193768372547419858e+03,1.959357974538690542e+03,1.347404318467109988e+03,9.523238182067871094e+00,1.529837548732757568e-01,-2.294756323099136353e-01,2.430000000000000000e+02
1.251455461324992029e+03,1.243718913463358149e+03,1.416062384280179685e+03,1.436121202490172436e+03,1.140569078116418495e+03,1.143510185498149440e+03,2.014142650559339927e+03,1.260541831734728021e+03,9.523238182067871094e+00,1.529837548732757568e-01,-2.294756323099136353e-01,2.440000000000000000e+02
1.187151770921546813e+03,1.172951348992545718e+03,1.341657047493596110e+03,1.465783190024244504e+03,1.085711871634485760e+03,1.073080787831175257e+03,2.105386157913407260e+03,1.169458540716449988e+03,9.523238182067871094e+00,1.529837548732757568e-01,-2.294756323099136353e-01,2.450000000000000000e+02
1.180966189413214124e+03,1.164965805190809988e+03,1.326978149155636856e+03,1.417864402885738855e+03,1.072851697987991429e+03,1.060911219506290763e+03,2.058395280813398131e+03,1.177383544756750780e+03,9.523238182067871094e+00,1.529837548732757568e-01,-2.294756323099136353e-01,2.460000000000000000e+02
1.224551337616011551e+03,1.210746791663130352e+03,1.371791580743596569e+03,1.332616172430020924e+03,1.104616983836011968e+03,1.106424842059233015e+03,1.890259807038186409e+03,1.250872761839824307e+03,9.523238182067871094e+00,1.529837548732757568e-01,-2.294756323099136353e-01,2.470000000000000000e+02
1.240750903364659280e+03,1.226105772436133520e+03,1.393253281722962129e+03,1.301148102718351765e+03,1.122781822891797674e+03,1.131033408890743885e+03,1.786500978732258773e+03,1.266416118870739410e+03,9.523238182067871094e+00,1.529837548732757568e-01,-2.294756323099136353e-01,2.480000000000000000e+02
1.191568494812018798e+03,1.167632663038366445e+03,1.340744491858093170e+03,1.340369985621179694e+03,1.088206584769589426e+03,1.086319460900641388e+03,1.844031364606040370e+03,1.181635777735249576e+03,9.523238182067871094e+00,1.529837548732757568e-01,-2.294756323099136353e-01,2.490000000000000000e+02
1.129892945461896488e+03,1.093342173911669306e+03,1.266098333007169458e+03,1.370431339062142797e+03,1.035085812244330555e+03,1.020878955987061090e+03,1.936980528713156673e+03,1.094269243287291829e+03,9.523238182067871094e+00,1.529837548732757568e-01,-2.294756323099136353e-01,2.500000000000000000e+02
1.125481308967032419e+03,1.083573681123734787e+03,1.251886206156840672e+03,1.324641080646036244e+03,1.024248296363316513e+03,1.012864634408503662e+03,1.891156866003586401e+03,1.106693855812938637e+03,9.523238182067871094e+00,1.529837548732757568e-01,-2.294756323099136353e-01,2.510000000000000000e+02
1.169271700529141526e+03,1.130478394557261709e+03,1.297582506108023154e+03,1.241181885394119490e+03,1.058795054301270284e+03,1.060803209608659017e+03,1.724846767708093466e+03,1.183940593115853517e+03,9.523238182067871094e+00,1.529837548732757568e-01,-2.294756323099136353e-01,2.520000000000000000e+02
1.186239922945156650e+03,1.148861906137190999e+03,1.320788598987815931e+03,1.211295248241702211e+03,1.078657680925943168e+03,1.084858639743098138e+03,1.623320399420361355e+03,1.202172005226439069e+03,9.523238182067871094e+00,1.529837548732757568e-01,-2.294756323099136353e-01,2.530000000000000000e+02
1.137890719684571195e+03,1.093957737873133738e+03,1.270763717535212891e+03,1.254076384974792745e+03,1.043038757758043175e+03,1.037983334713994736e+03,1.683103513898660822e+03,1.120056205942278211e+03,9.523238182067871094e+00,1.529837548732757568e-01,-2.294756323099136353e-01,2.540000000000000000e+02
1.074746486901673961e+03,1.022977495825396545e+03,1.197041166297495693e+03,1.289443035855980270e+03,9.868458706010351307e+02,9.716157916803022090e+02,1.779358657755547029e+03,1.035178759238620842e+03,9.523238182067871094e+00,1.529837548732757568e-01,-2.294756323099136353e-01,2.550000000000000000e+02
1.067643876713060308e+03,1.015323260949816358e+03,1.179884741614948325e+03,1.247862140233242826e+03,9.719677928142082237e+02,9.635881729127777362e+02,1.738497774477475105e+03,1.048244913673431256e+03,9.523238182067871094e+00,1.529837548732757568e-01,-2.294756323099136353e-01,2.560000000000000000e+02
1.111233709293315769e+03,1.062821605701389672e+03,1.220075665566119824e+03,1.166644403814811085e+03,1.001206449203518787e+03,1.009497120665262628e+03,1.577472546030048761e+03,1.123732464525294745e+03,9.523238182067871094e+00,1.529837548732757568e-01,-2.294756323099136353e-01,2.570000000000000000e+02
1.131303097677767255e+03,1.081937970365266665e+03,1.239384215413972925e+03,1.138814340006339989e+03,1.015317917306460913e+03,1.029229985902210501e+03,1.480359694855131238e+03,1.139133117193038743e+03,9.523238182067871094e+00,1.529837548732757568e-01,-2.294756323099136353e-01,2.580000000000000000e+02
1.086358791115920212e+03,1.030263461763362102e+03,1.189690924444685152e+03,1.183888249841655124e+03,9.767385363702405812e+02,9.784122175049442376e+02,1.544203360273768340e+03,1.054426176361005673e+03,9.523238182067871094e+00,1.529837548732757568e-01,-2.294756323099136353e-01,2.590000000000000000e+02
1.024277251338195128e+03,9.655932034434354136e+02,1.119808548596252876e+03,1.220224411118459102e+03,9.219607506438078417e+02,9.090937287344886499e+02,1.644677285163614215e+03,9.673815157549643118e+02,9.599730491638183594e+00,1.912296712398529053e-01,-1.912296712398529053e-01,2.600000000000000000e+02
1.016089146057171092e+03,9.659612587870869902e+02,1.108122337121157216e+03,1.178224277124121727e+03,9.102268379855686362e+02,8.971326036859827582e+02,1.607632926582624350e+03,9.782329450175511738e+02,9.599730491638183594e+00,1.912296712398529053e-01,-1.912296712398529053e-01,2.610000000000000000e+02
1.058033253081714065e+03,1.020903507488448668e+03,1.154033323950063277e+03,1.096849233679904501e+03,9.417126991519080548e+02,9.384159482347440644e+02,1.449732350298667370e+03,1.051181169644686634e+03,9.599730491638183594e+00,1.912296712398529053e-01,-1.912296712398529053e-01,2.620000000000000000e+02
1.076671766459758146e+03,1.044160181137111977e+03,1.177914269510316444e+03,1.069234318108459775e+03,9.581970481783992000e+02,9.560501203552394145e+02,1.355095596620511060e+03,1.064401800041474417e+03,9.599730491638183594e+00,1.912296712398529053e-01,-1.912296712398529053e-01,2.630000000000000000e+02
1.030401760170447233e+03,9.916590510691657983e+02,1.130305408792695744e+03,1.113498745761713508e+03,9.232026165566476266e+02,9.069462266832997557e+02,1.419937281659140353e+03,9.791100224400133811e+02,9.599730491638183594e+00,1.912296712398529053e-01,-1.912296712398529053e-01,2.640000000000000000e+02
9.674274105584336212e+02,9.223124906686607574e+02,1.059952086896044420e+03,1.148452960973807421e+03,8.708705402708583279e+02,8.413713628805653570e+02,1.519530812183746093e+03,8.932716167548187514e+02,9.599730491638183594e+00,1.912296712398529053e-01,-1.912296712398529053e-01,2.650000000000000000e+02
9.593053658020999137e+02,9.166551958585550892e+02,1.046586284810182406e+03,1.107126522166603536e+03,8.582982209035508276e+02,8.345681297177434317e+02,1.481605864956767618e+03,9.064012424830425516e+02,9.599730491638183594e+00,1.912296712398529053e-01,-1.912296712398529053e-01,2.660000000000000000e+02
1.001209417010339166e+03,9.655716712837620435e+02,1.090870425537490519e+03,1.029677856230278849e+03,8.874273744081474433e+02,8.836771467529033544e+02,1.324685066957994422e+03,9.828270386468775541e+02,9.599730491638183594e+00,1.912296712398529053e-01,-1.912296712398529053e-01,2.670000000000000000e+02
1.018049911999511096e+03,9.837837365654049790e+02,1.113145279488162487e+03,1.006932855259305143e+03,9.024768298594462976e+02,9.105992564868902264e+02,1.231779373566421782e+03,1.001048617766493408e+03,9.599730491638183594e+00,1.912296712398529053e-01,-1.912296712398529053e-01,2.680000000000000000e+02
9.695214680294175196e+02,9.290153353300029266e+02,1.063334427403975496e+03,1.053489963921392700e+03,8.666875764605592849e+02,8.682556705832939770e+02,1.297204034204356503e+03,9.206455273770607164e+02,9.599730491638183594e+00,1.912296712398529053e-01,-1.912296712398529053e-01,2.690000000000000000e+02
9.072920586297641421e+02,8.603471741447592649e+02,9.909989225726458244e+02,1.087151135138066820e+03,8.139895011638691358e+02,8.053042824947133340e+02,1.396864403099843912e+03,8.375488217278580123e+02,9.599730491638183594e+00,1.912296712398529053e-01,-1.912296712398529053e-01,2.700000000000000000e+02
9.030569357653512270e+02,8.556756753024837963e+02,9.780998925773637893e+02,1.043102235443016980e+03,8.036478949413594819e+02,7.990530657205708849e+02,1.359833359325051788e+03,8.521191199335335114e+02,9.599730491638183594e+00,1.912296712398529053e-01,-1.912296712398529053e-01,2.710000000000000000e+02
9.480952595898852451e+02,9.044456233682631137e+02,1.025581113198175444e+03,9.637589977092138724e+02,8.385938020302237419e+02,8.479330267396871932e+02,1.203946136135422421e+03,9.309422935742295522e+02,9.599730491638183594e+00,1.912296712398529053e-01,-1.912296712398529053e-01,2.720000000000000000e+02
9.651964325490826013e+02,9.230390317248293286e+02,1.050615108229423640e+03,9.398978842825363245e+02,8.604038013025747205e+02,8.729741809352326527e+02,1.111531033081457281e+03,9.522751795293934265e+02,9.599730491638183594e+00,1.912296712398529053e-01,-1.912296712398529053e-01,2.730000000000000000e+02
9.156175181456874270e+02,8.694835223854170181e+02,1.000821317877775073e+03,9.854048656751383533e+02,8.296539947541441506e+02,8.274987585343842511e+02,1.178235432563738868e+03,8.736750784970863606e+02,9.599730491638183594e+00,1.912296712398529053e-01,-1.912296712398529053e-01,2.740000000000000000e+02
8.517025193775079970e+02,8.000229405729787686e+02,9.277796775485076068e+02,1.018955046059572851e+03,7.805026819241884368e+02,7.623376192329815240e+02,1.280653987646102905e+03,7.909054998332849209e+02,9.599730491638183594e+00,1.912296712398529053e-01,-1.912296712398529053e-01,2.750000000000000000e+02
8.441872962188863312e+02,7.919039256729374756e+02,9.158069235626426234e+02,9.766738836025724595e+02,7.727808648332720622e+02,7.554325869235763093e+02,1.246492907119554729e+03,8.059812490718632034e+02,9.599730491638183594e+00,1.912296712398529053e-01,-1.912296712398529053e-01,2.760000000000000000e+02
8.863884463980830333e+02,8.382313123463791271e+02,9.643694083753944142e+02,8.998591377286338684e+02,8.080865940144594788e+02,8.040159724330060271e+02,1.093542830813879846e+03,8.860324604933903174e+02,9.599730491638183594e+00,1.912296712398529053e-01,-1.912296712398529053e-01,2.770000000000000000e+02
9.051893888527847594e+02,8.577935305890914606e+02,9.888904970066723763e+02,8.780100423177755147e+02,8.269094648543632502e+02,8.286572700089873251e+02,1.006214952464233647e+03,9.079319114386344154e+02,9.599730491638183594e+00,1.912296712398529053e-01,-1.912296712398529053e-01,2.780000000000000000e+02
8.613596486891492532e+02,8.074425608839464985e+02,9.387312596971223684e+02,9.260174064483417169e+02,7.908125199383957806e+02,7.827906721302369988e+02,1.080038557741110708e+03,8.276871342323702265e+02,9.599730491638183594e+00,1.912296712398529053e-01,-1.912296712398529053e-01,2.790000000000000000e+02
8.024490676026471192e+02,7.432887108008708310e+02,8.669644416807095695e+02,9.639339104688824591e+02,7.354790388703077042e+02,7.164542617071820132e+02,1.188693458190587990e+03,7.411179189308459172e+02,9.599730491638183594e+00,1.912296712398529053e-01,-1.912296712398529053e-01,2.800000000000000000e+02
7.973540153982885386e+02,7.438404265429471707e+02,8.561855870288309234e+02,9.267633987948920549e+02,7.216202192651799123e+02,7.071919575564024854e+02,1.159030071788201894e+03,7.519751073219122190e+02,9.599730491638183594e+00,1.912296712398529053e-01,-1.912296712398529053e-01,2.810000000000000000e+02
8.415960769645498658e+02,7.993545588198903715e+02,9.053037771009712742e+02,8.533588903129293612e+02,7.520409296147990972e+02,7.533149431399469904e+02,1.010408760014761356e+03,8.288298805193990120e+02,9.599730491638183594e+00,1.912296712398529053e-01,-1.912296712398529053e-01,2.820000000000000000e+02
8.626856265212154540e+02,8.230072437593680661e+02,9.325613244152536936e+02,8.322492231092910515e+02,7.688204900641430868e+02,7.760701010976245016e+02,9.265068651608125947e+02,8.482184625542267895e+02,9.599730491638183594e+00,1.912296712398529053e-01,-1.912296712398529053e-01,2.830000000000000000e+02
8.198840679254135466e+02,7.712020744973597175e+02,8.882013907213076891e+02,8.789707521706568514e+02,7.338465805030136835e+02,7.284894973844129709e+02,1.000694578587212163e+03,7.658989726033105399e+02,9.599730491638183594e+00,1.912296712398529053e-01,-1.912296712398529053e-01,2.840000000000000000e+02
7.612801059577432170e+02,7.044867116313216684e+02,8.218816537485236040e+02,9.144795852605184336e+02,6.814590879756196955e+02,6.609288083093961177e+02,1.108374484630039660e+03,6.791959804961352347e+02,9.599730491638183594e+00,1.912296712398529053e-01,-1.912296712398529053e-01,2.850000000000000000e+02
7.572704040448479645e+02,7.030229645597610215e+02,8.136302441416137299e+02,8.745307285218586912e+02,6.708037569825246464e+02,6.515694606102624675e+02,1.080001813936767576e+03,6.922040606702594232e+02,9.599730491638183594e+00,1.912296712398529053e-01,-1.912296712398529053e-01,2.860000000000000000e+02
8.019198756918049185e+02,7.560820711512533308e+02,8.632446090479970735e+02,7.985790036723992671e+02,7.038832693483273033e+02,6.978006053908229660e+02,9.340445021906416514e+02,7.707143138860119507e+02,9.599730491638183594e+00,1.912296712398529053e-01,-1.912296712398529053e-01,2.870000000000000000e+02
8.206217400759196607e+02,7.792703963837648189e+02,8.900151084568788065e+02,7.754198408991032920e+02,7.226672755920917552e+02,7.201238601025233947e+02,8.507694953536956746e+02,7.901854091120731027e+02,9.599730491638183594e+00,1.912296712398529053e-01,-1.912296712398529053e-01,2.880000000000000000e+02
7.741027551911793125e+02,7.320842233710664004e+02,8.443181972688926180e+02,8.208484604165496421e+02,6.895987694097420899e+02,6.735170467576081137e+02,9.239700621076335665e+02,7.104179934471612796e+02,9.599730491638183594e+00,1.912296712398529053e-01,-1.912296712398529053e-01,2.890000000000000000e+02
7.131020041332085384e+02,6.715819702899188997e+02,7.770067565178233053e+02,8.562961082953734149e+02,6.398994329197812476e+02,6.104539229073416209e+02,1.031449899236253259e+03,6.318601376030146639e+02,9.599730491638183594e+00,1.912296712398529053e-01,-1.912296712398529053e-01,2.900000000000000000e+02
7.079190454923809739e+02,6.716567562318232376e+02,7.690744778649059299e+02,8.176042403112005559e+02,6.327290526214965212e+02,6.080258091984469502e+02,1.002993194313516142e+03,6.551592493725820532e+02,9.446745872497558594e+00,1.529837548732757568e-01,-1.912296712398529053e-01,2.910000000000000000e+02
7.516380046288686572e+02,7.217054260714121483e+02,8.188248013241136505e+02,7.436295207472758193e+02,6.686891177203542611e+02,6.613455328924574133e+02,8.559728761835503974e+02,7.411436981129281776e+02,9.446745872497558594e+00,1.529837548732757568e-01,-1.912296712398529053e-01,2.920000000000000000e+02
7.702635973592514347e+02,7.420325652466053725e+02,8.441859902631586010e+02,7.225071196440403583e+02,6.883188663352884760e+02,6.905735020750653348e+02,7.727347042724904895e+02,7.652014124036359135e+02,9.446745872497558594e+00,1.529837548732757568e-01,-1.912296712398529053e-01,2.930000000000000000e+02
7.245467209060443565e+02,6.932858492963605386e+02,7.971233654958850821e+02,7.695452812388939492e+02,6.541673171716902289e+02,6.506944420352083398e+02,8.482363800115381309e+02,6.888048865410601138e+02,9.446745872497558594e+00,1.529837548732757568e-01,-1.912296712398529053e-01,2.940000000000000000e+02
6.635184488551021786e+02,6.305761650100976112e+02,7.302802307053789264e+02,8.055605604057236633e+02,6.027660847421720973e+02,5.923410975042243081e+02,9.578658959013955609e+02,6.111158377704668965e+02,9.446745872497558594e+00,1.529837548732757568e-01,-1.912296712398529053e-01,2.950000000000000000e+02
6.569365823907937738e+02,6.281779937930477899e+02,7.235411524987430312e+02,7.661413437049304775e+02,5.944744893907991354e+02,5.908759263529209420e+02,9.305348500994041387e+02,6.316677748640104255e+02,9.446745872497558594e+00,1.529837548732757568e-01,-1.912296712398529053e-01,2.960000000000000000e+02
6.994099383765278617e+02,6.772947530694436864e+02,7.735462062165752286e+02,6.910413114858638437e+02,6.306119038531396654e+02,6.421718203898235515e+02,7.859571010671861586e+02,7.140150466618179053e+02,9.446745872497558594e+00,1.529837548732757568e-01,-1.912296712398529053e-01,2.970000000000000000e+02
7.178377977246127557e+02,6.977786347854271298e+02,7.989385540736329858e+02,6.697263082169301924e+02,6.520421276716369903e+02,6.684668163625610759e+02,7.062040273232232721e+02,7.365799345162849932e+02,9.446745872497558594e+00,1.529837548732757568e-01,-1.912296712398529053e-01,2.980000000000000000e+02
6.725774544807281927e+02,6.488665514420499676e+02,7.529238276903088263e+02,7.177787124572168977e+02,6.207166781137057114e+02,6.259205723115301225e+02,7.829415223176074505e+02,6.602366260656417580e+02,9.446745872497558594e+00,1.529837548732757568e-01,-1.912296712398529053e-01,2.990000000000000000e+02
6.126763551766925957e+02,5.859583191569327028e+02,6.873287301170566934e+02,7.553541475945348793e+02,5.715753865119113470e+02,5.650700432440935401e+02,8.919372480800848280e+02,5.821063915458580595e+02,9.446745872497558594e+00,1.529837548732757568e-01,-1.912296712398529053e-01,3.000000000000000000e+02
6.080954702304588864e+02,5.845979197947817738e+02,6.808283001574454829e+02,7.178382138730266888e+02,5.637808682694230811e+02,5.607265056626638398e+02,8.658450454548474227e+02,6.013654876203181630e+02,9.446745872497558594e+00,1.529837548732757568e-01,-1.912296712398529053e-01,3.010000000000000000e+02
6.527264841401301965e+02,6.366913380483420042e+02,7.308855011662017205e+02,6.453552993339508248e+02,5.989558659185131546e+02,6.087242577646247810e+02,7.244673310503421817e+02,6.820061357988124655e+02,9.446745872497558594e+00,1.529837548732757568e-01,-1.912296712398529053e-01,3.020000000000000000e+02
6.728461197729411651e+02,6.615755225413449807e+02,7.573455742244041176e+02,6.271923420951388835e+02,6.189492179875560396e+02,6.321769833410071442e+02,6.467994693631699192e+02,7.021888848056478309e+02,9.446745872497558594e+00,1.529837548732757568e-01,-1.912296712398529053e-01,3.030000000000000000e+02
6.292553321490049711e+02,6.165404814581816026e+02,7.124369376658905821e+02,6.782375004033456207e+02,5.861486413867314695e+02,5.880451825618256407e+02,7.245004368259142211e+02,6.226454919910647732e+02,9.446745872497558594e+00,1.529837548732757568e-01,-1.912296712398529053e-01,3.040000000000000000e+02
5.714184993466406013e+02,5.555839322246538359e+02,6.465767711111657263e+02,7.185195822944187967e+02,5.355046408251182584e+02,5.264621727240482869e+02,8.353947324859400396e+02,5.413113058485832880e+02,9.446745872497558594e+00,1.529837548732757568e-01,-1.912296712398529053e-01,3.050000000000000000e+02
5.689419161084151710e+02,5.555622575302550104e+02,6.395201324304653099e+02,6.835211401206361188e+02,5.261874718641302024e+02,5.214737608270261262e+02,8.113352417405840242e+02,5.584684765209312900e+02,9.446745872497558594e+00,1.529837548732757568e-01,-1.912296712398529053e-01,3.060000000000000000e+02
6.153995886700759002e+02,6.097362706246058224e+02,6.904263606430504296e+02,6.124712768359859183e+02,5.595665591747856524e+02,5.691602250048199494e+02,6.703938346456270665e+02,6.388240078703092877e+02,9.446745872497558594e+00,1.529837548732757568e-01,-1.912296712398529053e-01,3.070000000000000000e+02
6.372992671780739329e+02,6.356212450679813628e+02,7.181374583109354717e+02,5.936540636172358063e+02,5.772947002805231023e+02,5.931817045141979179e+02,5.926883648662769701e+02,6.607813592191196221e+02,9.446745872497558594e+00,1.529837548732757568e-01,-1.912296712398529053e-01,3.080000000000000000e+02
5.960137996062221646e+02,5.892185498042381369e+02,6.732875487588025862e+02,6.427821615116627072e+02,5.426832132798481325e+02,5.500442482301186828e+02,6.712442992511932971e+02,5.845082726894870575e+02,9.446745872497558594e+00,1.529837548732757568e-01,-1.912296712398529053e-01,3.090000000000000000e+02
5.415240244718079339e+02,5.275830861441936577e+02,6.077636050217442971e+02,6.815866825890916516e+02,4.922927131858705252e+02,4.890603677497856552e+02,7.827808954565116437e+02,5.061833379709205474e+02,9.446745872497558594e+00,1.529837548732757568e-01,-1.912296712398529053e-01,3.100000000000000000e+02
5.428525748342726729e+02,5.298212984421443252e+02,6.033620189746252436e+02,6.455050554447043396e+02,4.855705401775521750e+02,4.841213199745288875e+02,7.592302192403876688e+02,5.240503231728362152e+02,9.446745872497558594e+00,1.529837548732757568e-01,-1.912296712398529053e-01,3.110000000000000000e+02
5.916384192811055982e+02,5.860397398649474781e+02,6.578069272972934414e+02,5.725691366888313496e+02,5.223221998044027714e+02,5.313853027295590437e+02,6.204944732262738398e+02,6.026201163673322299e+02,9.523238182067871094e+00,1.912296712398529053e-01,-3.059675097465515137e-01,3.120000000000000000e+02
6.133670529732589785e+02,6.111271877592480450e+02,6.875122777060933004e+02,5.514431793956937327e+02,5.426518421974069497e+02,5.545777670462048263e+02,5.464629835386876948e+02,6.226977540286097792e+02,9.523238182067871094e+00,1.912296712398529053e-01,-3.059675097465515137e-01,3.130000000000000000e+02
5.710083058367454214e+02,5.637599967668575118e+02,6.435276110232116480e+02,5.993496505256553064e+02,5.096322956923540914e+02,5.110648626270012755e+02,6.274107386787945870e+02,5.470508183276360796e+02,9.523238182067871094e+00,1.912296712398529053e-01,-3.059675097465515137e-01,3.140000000000000000e+02
5.164918384240081650e+02,5.025077706552219752e+02,5.785603500334509590e+02,6.380847357324382756e+02,4.602790655736280314e+02,4.514584011868282687e+02,7.394997458300713333e+02,4.718979454963009630e+02,9.523238182067871094e+00,1.912296712398529053e-01,-3.059675097465515137e-01,3.150000000000000000e+02
5.184418124108451593e+02,5.025920834149546863e+02,5.730156464548708755e+02,6.023191182951741212e+02,4.545717203610183788e+02,4.497489539446942217e+02,7.163617151731305057e+02,4.937153887619351735e+02,9.523238182067871094e+00,1.912296712398529053e-01,-3.059675097465515137e-01,3.160000000000000000e+02
5.669437034366601438e+02,5.522229707782498735e+02,6.245298350444354583e+02,5.308068743581898161e+02,4.929851254084096581e+02,5.009908486169042590e+02,5.784717372687809984e+02,5.759828208328726760e+02,9.523238182067871094e+00,1.912296712398529053e-01,-3.059675097465515137e-01,3.170000000000000000e+02
5.869986664843017934e+02,5.707632400372349366e+02,6.526872839092720824e+02,5.131815549501334317e+02,5.157879322612207034e+02,5.282589908025474870e+02,5.046344650358296349e+02,5.992091616525103746e+02,9.523238182067871094e+00,1.912296712398529053e-01,-3.059675097465515137e-01,3.180000000000000000e+02
5.415776274354575435e+02,5.206453230765982880e+02,6.099988719777575170e+02,5.652508095800076262e+02,4.849054522761980479e+02,4.889503857812924252e+02,5.855529196614734246e+02,5.251751951144797204e+02,9.523238182067871094e+00,1.912296712398529053e-01,-3.059675097465515137e-01,3.190000000000000000e+02
4.822147664426702249e+02,4.592894458234986814e+02,5.463482568778017594e+02,6.065343126868865511e+02,4.359305120509707194e+02,4.331655842520012811e+02,6.988582120003484306e+02,4.493814377584676549e+02,9.523238182067871094e+00,1.912296712398529053e-01,-3.059675097465515137e-01,3.200000000000000000e+02
4.782911891816547723e+02,4.610520178217666398e+02,5.400386873226307216e+02,5.717742691300372826e+02,4.289779870232632675e+02,4.339337559899249754e+02,6.780218458498493419e+02,4.695091531504585873e+02,9.523238182067871094e+00,1.912296712398529053e-01,-3.059675097465515137e-01,3.210000000000000000e+02
5.229088404702233674e+02,5.150653388196951710e+02,5.905087153960557771e+02,5.012171542649521143e+02,4.659765889721529675e+02,4.860994128011589055e+02,5.419852348194908700e+02,5.507992384227327420e+02,9.523238182067871094e+00,1.912296712398529053e-01,-3.059675097465515137e-01,3.220000000000000000e+02
5.439583184029288532e+02,5.385491503201301384e+02,6.192280275827797595e+02,4.845204941957163101e+02,4.881065314444531396e+02,5.131706926377555646e+02,4.690500087546533905e+02,5.738659407793020364e+02,9.523238182067871094e+00,1.912296712398529053e-01,-3.059675097465515137e-01,3.230000000000000000e+02
5.037291148739859636e+02,4.900845741325538256e+02,5.778187449457473122e+02,5.367564817434686120e+02,4.571044628888230363e+02,4.727097429156019643e+02,5.504492610942033934e+02,4.997607175637313048e+02,9.523238182067871094e+00,1.912296712398529053e-01,-3.059675097465515137e-01,3.240000000000000000e+02
4.495398482823293307e+02,4.279083372729000985e+02,5.147737765291167307e+02,5.783769421782781137e+02,4.083189313397379010e+02,4.150131194919886184e+02,6.640001779924714356e+02,4.242673395329184132e+02,9.523238182067871094e+00,1.912296712398529053e-01,-3.059675097465515137e-01,3.250000000000000000e+02
4.472376720557949739e+02,4.301956400609487901e+02,5.082434801255694765e+02,5.456542735580442240e+02,4.020175402441964252e+02,4.138656338170403615e+02,6.433479824058740633e+02,4.456783372428144503e+02,9.523238182067871094e+00,1.912296712398529053e-01,-3.059675097465515137e-01,3.260000000000000000e+02
4.905787952357495669e+02,4.863811849548110331e+02,5.576735427238418197e+02,4.780812482740730047e+02,4.400033307409830741e+02,4.644864489885076182e+02,5.082435065934769227e+02,5.285830809441104066e+02,9.523238182067871094e+00,1.912296712398529053e-01,-3.059675097465515137e-01,3.270000000000000000e+02
5.104696881695454067e+02,5.118002468328049872e+02,5.846553153432068939e+02,4.628795226392758195e+02,4.628167221756557410e+02,4.896828773133420327e+02,4.372787792411691044e+02,5.522271132229507202e+02,9.523238182067871094e+00,1.912296712398529053e-01,-3.059675097465515137e-01,3.280000000000000000e+02
4.704353581093673711e+02,4.659307688165426953e+02,5.420845018463005545e+02,5.143281704983382951e+02,4.317573688901138667e+02,4.465906607188335329e+02,5.205729592712086742e+02,4.771847961005623802e+02,9.523238182067871094e+00,1.912296712398529053e-01,-3.059675097465515137e-01,3.290000000000000000e+02
4.173953620100364788e+02,4.083561563699331600e+02,4.800036455545778153e+02,5.545814313270384446e+02,3.824132946337267640e+02,3.864149850184148818e+02,6.349339694801019505e+02,3.998608671673318895e+02,9.523238182067871094e+00,1.912296712398529053e-01,-3.059675097465515137e-01,3.300000000000000000e+02
4.178482716035141493e+02,4.149962142894728458e+02,4.766452416787651600e+02,5.216382382629672065e+02,3.756076334198951372e+02,3.837913559182125027e+02,6.140007944754470373e+02,4.193063238966169592e+02,9.523238182067871094e+00,1.912296712398529053e-01,-3.059675097465515137e-01,3.310000000000000000e+02
4.659683832742884988e+02,4.729593309196025075e+02,5.301136610366047535e+02,4.549502317698497791e+02,4.135768032860760286e+02,4.334738852576047066e+02,4.788711734419703134e+02,5.003629181098149274e+02,9.523238182067871094e+00,1.912296712398529053e-01,-3.059675097465515137e-01,3.320000000000000000e+02
4.902703689896152355e+02,4.993758849168298184e+02,5.604458790288481396e+02,4.408271897915110458e+02,4.371672327320338809e+02,4.578863947796744469e+02,4.076425146763867815e+02,5.222774482581226039e+02,9.523238182067871094e+00,1.912296712398529053e-01,-3.059675097465515137e-01,3.330000000000000000e+02
4.518957315087391180e+02,4.557527081262269348e+02,5.196634948147220712e+02,4.931124686157854740e+02,4.078331231060656137e+02,4.151930881244916236e+02,4.899456244009343209e+02,4.461765063259626913e+02,9.523238182067871094e+00,1.912296712398529053e-01,-3.059675097465515137e-01,3.340000000000000000e+02
3.991403252629243070e+02,3.993666803236919804e+02,4.580297652847002610e+02,5.338742971199462772e+02,3.607476636139472248e+02,3.574848871737849549e+02,6.037592751574557042e+02,3.697149375364315347e+02,9.523238182067871094e+00,1.912296712398529053e-01,-3.059675097465515137e-01,3.350000000000000000e+02
4.008173455629366799e+02,4.031794234242843231e+02,4.546351071827630221e+02,5.008104712032873067e+02,3.556482025994773721e+02,3.584119371309498092e+02,5.845570230826851912e+02,3.925248050082009286e+02,9.523238182067871094e+00,1.912296712398529053e-01,-3.059675097465515137e-01,3.360000000000000000e+02
4.503073421024382696e+02,4.559611130881166901e+02,5.080123613567557186e+02,4.331028165911629912e+02,3.939565524719218956e+02,4.111486196952173486e+02,4.522171264138960396e+02,4.781694170683949778e+02,9.484992027282714844e+00,7.649187743663787842e-02,-2.677215635776519775e-01,3.370000000000000000e+02
4.744463172561881947e+02,4.785824889844734571e+02,5.382252097981690895e+02,4.172630940275339526e+02,4.170357525088547845e+02,4.379076038723869715e+02,3.834377741974603850e+02,5.039824987130159570e+02,9.484992027282714844e+00,7.649187743663787842e-02,-2.677215635776519775e-01,3.380000000000000000e+02
4.349202703610353637e+02,4.330349498183932155e+02,4.979126567341882037e+02,4.677526195807004115e+02,3.875449006012640893e+02,3.973312947409795015e+02,4.676564767360832775e+02,4.304166986268901383e+02,9.484992027282714844e+00,7.649187743663787842e-02,-2.677215635776519775e-01,3.390000000000000000e+02
3.806662487088833586e+02,3.748502011470627622e+02,4.379903189124524943e+02,5.073741642196473549e+02,3.406975364074532990e+02,3.412477618370830896e+02,5.828851031817612238e+02,3.551145782143794349e+02,9.484992027282714844e+00,7.649187743663787842e-02,-2.677215635776519775e-01,3.400000000000000000e+02
3.795578036384686129e+02,3.769136416023102356e+02,4.365667944019078277e+02,4.742312544496016926e+02,3.349734564223908819e+02,3.432481383204140002e+02,5.638289246861531865e+02,3.771121876740762673e+02,9.484992027282714844e+00,7.649187743663787842e-02,-2.677215635776519775e-01,3.410000000000000000e+02
4.253916752537916182e+02,4.284427164159133099e+02,4.902507022814388620e+02,4.070988049805091578e+02,3.714128839387049084e+02,3.978195156877482077e+02,4.304282096400129376e+02,4.602347194500362093e+02,9.484992027282714844e+00,7.649187743663787842e-02,-2.677215635776519775e-01,3.420000000000000000e+02
4.479824026416463312e+02,4.487565371245291317e+02,5.189448080362562905e+02,3.916736969596895506e+02,3.928184422414342407e+02,4.279000516705127666e+02,3.608693792472913628e+02,4.842709251100495749e+02,9.484992027282714844e+00,7.649187743663787842e-02,-2.677215635776519775e-01,3.430000000000000000e+02
4.107800307735742535e+02,3.993333618326942087e+02,4.769145444551686523e+02,4.423647305254780804e+02,3.630231410576161579e+02,3.900419541675728397e+02,4.451775485103426035e+02,4.114523801706454833e+02,9.484992027282714844e+00,7.649187743663787842e-02,-2.677215635776519775e-01,3.440000000000000000e+02
3.607923229600492050e+02,3.393300891847538878e+02,4.157212228146745474e+02,4.827235574845326482e+02,3.167094767519520246e+02,3.333941017169418046e+02,5.605207294151405222e+02,3.376326736289192922e+02,9.484992027282714844e+00,7.649187743663787842e-02,-2.677215635776519775e-01,3.450000000000000000e+02
3.626740815522935009e+02,3.448360047186943120e+02,4.127755503071675776e+02,4.509989675249235006e+02,3.118395631297680666e+02,3.319670127004865208e+02,5.417383408202949795e+02,3.593478427854279289e+02,9.484992027282714844e+00,7.649187743663787842e-02,-2.677215635776519775e-01,3.460000000000000000e+02
4.089482958915614290e+02,4.029970691859198269e+02,4.651110171371838078e+02,3.851781686062022345e+02,3.501310244388077990e+02,3.825642436592170270e+02,4.098559579168359051e+02,4.412413399706638302e+02,9.484992027282714844e+00,7.649187743663787842e-02,-2.677215635776519775e-01,3.470000000000000000e+02
4.303874918313449598e+02,4.297228216144285398e+02,4.940257235768731334e+02,3.706484452059376054e+02,3.743506968513756874e+02,4.086331195527309319e+02,3.423801667020961759e+02,4.652911338052435894e+02,9.484992027282714844e+00,7.649187743663787842e-02,-2.677215635776519775e-01,3.480000000000000000e+02
3.915437109400008922e+02,3.863660217994474806e+02,4.533084688846865902e+02,4.224642636619246332e+02,3.467315804033423774e+02,3.663305723881276208e+02,4.274817630867692060e+02,3.934332401710998965e+02,9.484992027282714844e+00,7.649187743663787842e-02,-2.677215635776519775e-01,3.490000000000000000e+02
3.391574552603124175e+02,3.314824134210721240e+02,3.925406554252767819e+02,4.645779649497126229e+02,3.012939752122620121e+02,3.066696008755970979e+02,5.426421180463294149e+02,3.201115770765609341e+02,9.484992027282714844e+00,7.649187743663787842e-02,-2.677215635776519775e-01,3.500000000000000000e+02
3.376588516961783171e+02,3.373092812369868625e+02,3.890572451673069736e+02,4.350448711804710911e+02,2.972453290307239513e+02,3.057548934378937702e+02,5.245167693856201367e+02,3.423584284681273857e+02,9.484992027282714844e+00,7.649187743663787842e-02,-2.677215635776519775e-01,3.510000000000000000e+02
3.813521672620627214e+02,3.898632298381926375e+02,4.417345767791557591e+02,3.718835371947789099e+02,3.369150005573465023e+02,3.588573183318512747e+02,3.943484777779085562e+02,4.257726784117767238e+02,9.484992027282714844e+00,7.649187743663787842e-02,-2.677215635776519775e-01,3.520000000000000000e+02
4.031609447753362474e+02,4.097903002798848320e+02,4.724504733486173791e+02,3.604551119553725584e+02,3.621800727251975331e+02,3.866988172131968895e+02,3.283640076527954079e+02,4.514390764142808621e+02,9.484992027282714844e+00,7.649187743663787842e-02,-2.677215635776519775e-01,3.530000000000000000e+02
3.674502574724683654e+02,3.623269470569503028e+02,4.341202099645670387e+02,4.147905068005493376e+02,3.350339647677828907e+02,3.458220748430612730e+02,4.144402157286967849e+02,3.801053563199238852e+02,9.484992027282714844e+00,7.649187743663787842e-02,-2.677215635776519775e-01,3.540000000000000000e+02
3.197876261185010662e+02,3.053229981440599659e+02,3.762533106596529251e+02,4.575676091268687742e+02,2.899984110737859737e+02,2.882562036712042755e+02,5.304257000066718319e+02,3.065160316314650117e+02,9.484992027282714844e+00,7.649187743663787842e-02,-2.677215635776519775e-01,3.550000000000000000e+02
3.243714461008421495e+02,3.108785948906806880e+02,3.763023066340247169e+02,4.267914645229175221e+02,2.856172539226463414e+02,2.880621306112734601e+02,5.125519989642634755e+02,3.282597712490824051e+02,9.484992027282714844e+00,7.649187743663787842e-02,-2.677215635776519775e-01,3.560000000000000000e+02
3.738813397837657249e+02,3.667455112368188566e+02,4.316261661617973004e+02,3.613275857727639959e+02,3.234192053307633614e+02,3.390517107669147663e+02,3.819873385603859788e+02,4.108885303151910193e+02,9.484992027282714844e+00,7.649187743663787842e-02,-2.677215635776519775e-01,3.570000000000000000e+02
3.972680247308526305e+02,3.914097733601738582e+02,4.624213811500012525e+02,3.469229091650995542e+02,3.465684727390471380e+02,3.648976101345760981e+02,3.162052341791131767e+02,4.358381034881167579e+02,9.484992027282714844e+00,7.649187743663787842e-02,-2.677215635776519775e-01,3.580000000000000000e+02
3.575476106980931945e+02,3.446113504102613661e+02,4.218400022958230693e+02,3.974699066757311812e+02,3.187512272951862542e+02,3.249303178010668489e+02,4.036880299845506670e+02,3.643927961245935876e+02,9.484992027282714844e+00,7.649187743663787842e-02,-2.677215635776519775e-01,3.590000000000000000e+02
3.040772395525054890e+02,2.833837405927406508e+02,3.604944635782230762e+02,4.359348237724116188e+02,2.740362655194912804e+02,2.693107018673836137e+02,5.210946920380083611e+02,2.908382597490417538e+02,9.484992027282714844e+00,7.649187743663787842e-02,-2.677215635776519775e-01,3.600000000000000000e+02
3.048565415758785093e+02,2.850474845348071540e+02,3.565972550480000791e+02,4.014737391687522177e+02,2.699167916653386783e+02,2.698085046140768100e+02,5.037878687237389386e+02,3.120161473927146289e+02,9.484992027282714844e+00,7.649187743663787842e-02,-2.677215635776519775e-01,3.610000000000000000e+02
3.527975359922857024e+02,3.416084263376178569e+02,4.088676224552982603e+02,3.345869107954276842e+02,3.082054939295485383e+02,3.217594015647046035e+02,3.728582179083896335e+02,3.936831799041538034e+02,9.484992027282714844e+00,7.649187743663787842e-02,-2.677215635776519775e-01,3.620000000000000000e+02
3.766400856789477984e+02,3.712664245491323527e+02,4.393256007818490616e+02,3.220731645775449579e+02,3.321416470611366094e+02,3.503845516717410646e+02,3.074258899628766812e+02,4.179163248183685937e+02,9.484992027282714844e+00,7.649187743663787842e-02,-2.677215635776519775e-01,3.630000000000000000e+02
3.404048425852088258e+02,3.312133911182754673e+02,4.015459138418736984e+02,3.770019672381240525e+02,3.045694310487742769e+02,3.131389799587923335e+02,3.952456795358739328e+02,3.465295422246563248e+02,9.484992027282714844e+00,2.294756323099136353e-01,-2.677215635776519775e-01,3.640000000000000000e+02
2.926811288726748899e+02,2.755319664884154918e+02,3.450452052408654708e+02,4.198758314730657730e+02,2.599660857389899320e+02,2.584471631332417019e+02,5.122206202981615206e+02,2.745214748557555140e+02,9.484992027282714844e+00,2.294756323099136353e-01,-2.677215635776519775e-01,3.650000000000000000e+02
2.984948466884670779e+02,2.791995816514026956e+02,3.465578253031126224e+02,3.879926811173936585e+02,2.570963980304368306e+02,2.593303052780684084e+02,4.942133419305755524e+02,2.986355961482913699e+02,9.484992027282714844e+00,2.294756323099136353e-01,-2.677215635776519775e-01,3.660000000000000000e+02
3.487437070297091850e+02,3.342574248043747502e+02,4.027206659701478202e+02,3.220751138215855462e+02,2.968444036984219565e+02,3.123184762590317405e+02,3.638049874797870871e+02,3.826653223542161868e+02,9.484992027282714844e+00,2.294756323099136353e-01,-2.677215635776519775e-01,3.670000000000000000e+02
3.719549590528258705e+02,3.609605198096833192e+02,4.334385471052446519e+02,3.099587590508381254e+02,3.203636757107669837e+02,3.416171470722911181e+02,2.986215869033185299e+02,4.070380837733828230e+02,9.484992027282714844e+00,2.294756323099136353e-01,-2.677215635776519775e-01,3.680000000000000000e+02
3.325908446819230448e+02,3.179871199227345642e+02,3.927422132834471995e+02,3.649517324384723906e+02,2.912621899549703812e+02,3.037793918171082623e+02,3.858828511603642255e+02,3.347397936734923860e+02,9.484992027282714844e+00,2.294756323099136353e-01,-2.677215635776519775e-01,3.690000000000000000e+02
2.807225061208664556e+02,2.598619660639305948e+02,3.332395742678490933e+02,4.075382965526951011e+02,2.465899936251007603e+02,2.477989384155807784e+02,5.027379381419741549e+02,2.626807870409829775e+02,9.484992027282714844e+00,2.294756323099136353e-01,-2.677215635776519775e-01,3.700000000000000000e+02
2.835455947473092237e+02,2.622934186185884755e+02,3.337606630823793239e+02,3.755228197460746742e+02,2.449633996916963952e+02,2.468574679580269731e+02,4.868897720577078871e+02,2.869480172291368945e+02,9.484992027282714844e+00,2.294756323099136353e-01,-2.677215635776519775e-01,3.710000000000000000e+02
3.324979015433564200e+02,3.181624396282859379e+02,3.905154223942518001e+02,3.097829869161359966e+02,2.849806988554992131e+02,2.965031211057357723e+02,3.605150330313190352e+02,3.695846849387889961e+02,9.484992027282714844e+00,2.294756323099136353e-01,-2.677215635776519775e-01,3.720000000000000000e+02
3.548229772673075786e+02,3.478581059656280559e+02,4.224900520645314828e+02,2.976282704851037124e+02,3.075875538940308616e+02,3.208699031787546119e+02,2.988109713383018970e+02,3.915105601801697048e+02,9.484992027282714844e+00,2.294756323099136353e-01,-2.677215635776519775e-01,3.730000000000000000e+02
3.142014260604773881e+02,3.097035086400792352e+02,3.829953987531771418e+02,3.527389423669665121e+02,2.779257857741031330e+02,2.787727350756103988e+02,3.875422010968177347e+02,3.176075195696976152e+02,9.484992027282714844e+00,2.294756323099136353e-01,-2.677215635776519775e-01,3.740000000000000000e+02
2.610820186358469073e+02,2.569451473883964354e+02,3.231192625665862579e+02,3.971201226640550885e+02,2.329186049966810970e+02,2.221106535343860742e+02,5.044907300197228324e+02,2.452833291293572984e+02,9.484992027282714844e+00,2.294756323099136353e-01,-2.677215635776519775e-01,3.750000000000000000e+02
2.633646944070133031e+02,2.624006405097097741e+02,3.207647868759813718e+02,3.688735636920755496e+02,2.303151547183224466e+02,2.245228074904589448e+02,4.877481064958410570e+02,2.701479292165749939e+02,9.484992027282714844e+00,2.294756323099136353e-01,-2.677215635776519775e-01,3.760000000000000000e+02
3.135731177862398908e+02,3.164594532055634772e+02,3.739686332949131611e+02,3.069872382297617150e+02,2.701661246946459869e+02,2.789498063059290871e+02,3.591078442238213029e+02,3.545189234085773933e+02,9.484992027282714844e+00,2.294756323099136353e-01,-2.677215635776519775e-01,3.770000000000000000e+02
3.398542612804740202e+02,3.404135211476605036e+02,4.046516723513122997e+02,2.969654078109742841e+02,2.953012415028424584e+02,3.068795153182072681e+02,2.945989084405882750e+02,3.793974364297755528e+02,9.484992027282714844e+00,2.294756323099136353e-01,-2.677215635776519775e-01,3.780000000000000000e+02
3.050509566276086844e+02,2.962752357473073062e+02,3.667659249994176207e+02,3.523542009719385533e+02,2.690878660979215056e+02,2.669202017199277179e+02,3.817773452018445823e+02,3.081908616393557168e+02,9.484992027282714844e+00,2.294756323099136353e-01,-2.677215635776519775e-01,3.790000000000000000e+02
2.575446314781438559e+02,2.402910074088722467e+02,3.097242876947566401e+02,3.956715886546735419e+02,2.247103205802995944e+02,2.116900595053230063e+02,4.987423559174640104e+02,2.367653232383163413e+02,9.484992027282714844e+00,2.294756323099136353e-01,-2.677215635776519775e-01,3.800000000000000000e+02
2.637622305727854837e+02,2.456653988337056944e+02,3.100488418681052281e+02,3.654073674670362379e+02,2.196994474516322953e+02,2.145392471740342444e+02,4.826665895998157794e+02,2.610383023926988244e+02,9.484992027282714844e+00,2.294756323099136353e-01,-2.677215635776519775e-01,3.810000000000000000e+02
3.152397461564687546e+02,3.012637577646237332e+02,3.655812679263617611e+02,3.011277710446302081e+02,2.576812205867609009e+02,2.685259122272982495e+02,3.552822853061079513e+02,3.447179586126221693e+02,9.484992027282714844e+00,2.294756323099136353e-01,-2.677215635776519775e-01,3.820000000000000000e+02
3.395149155955514289e+02,3.264968454449845012e+02,3.980044251611834625e+02,2.886411326467568870e+02,2.836487448147381656e+02,2.967005506342466106e+02,2.927904171076806961e+02,3.696071831698209280e+02,9.484992027282714844e+00,2.294756323099136353e-01,-2.677215635776519775e-01,3.830000000000000000e+02
3.009478674943966325e+02,2.823545344627782470e+02,3.606589122337172739e+02,3.412722137897362700e+02,2.596547797474777326e+02,2.581424980342853814e+02,3.816250138828909257e+02,2.992240234046694241e+02,9.484992027282714844e+00,2.294756323099136353e-01,-2.677215635776519775e-01,3.840000000000000000e+02
2.507163809942721855e+02,2.250391702224878827e+02,3.030351762852660613e+02,3.821404869732941734e+02,2.173765570488685626e+02,2.036568646373634692e+02,4.990940894994710106e+02,2.293129589939708239e+02,9.484992027282714844e+00,2.294756323099136353e-01,-2.677215635776519775e-01,3.850000000000000000e+02
2.554205546180746751e+02,2.280304332700397936e+02,3.022461649711185601e+02,3.512703765434125671e+02,2.143471079666633159e+02,2.057241484401165508e+02,4.835154221643751953e+02,2.552026869852270465e+02,9.484992027282714844e+00,2.294756323099136353e-01,-2.677215635776519775e-01,3.860000000000000000e+02
3.045461877494672081e+02,2.809400696286320454e+02,3.558396225825781585e+02,2.885100520269770641e+02,2.535966064972089953e+02,2.592660878915557987e+02,3.572031274867767934e+02,3.398266623443196295e+02,9.484992027282714844e+00,2.294756323099136353e-01,-2.677215635776519775e-01,3.870000000000000000e+02
3.259937848666886566e+02,3.048903673323293333e+02,3.851345751910994295e+02,2.783478923344082432e+02,2.787990308153603110e+02,2.887937901489349315e+02,2.948305132284585852e+02,3.650987032910197740e+02,9.484992027282714844e+00,2.294756323099136353e-01,-2.677215635776519775e-01,3.880000000000000000e+02
2.867736255278141471e+02,2.625127406062820228e+02,3.455653843812906416e+02,3.331793159377994016e+02,2.530499802232225193e+02,2.524711059638939332e+02,3.803133151743822964e+02,2.954922644571925048e+02,9.484992027282714844e+00,2.294756323099136353e-01,-2.677215635776519775e-01,3.890000000000000000e+02
2.371119073348963866e+02,2.088016149730319739e+02,2.889360866460847319e+02,3.761305096424912335e+02,2.100367016110903933e+02,1.991471986760006985e+02,4.940093897327024024e+02,2.263526760491440655e+02,9.484992027282714844e+00,2.294756323099136353e-01,-2.677215635776519775e-01,3.900000000000000000e+02
2.411743294180341763e+02,2.150267839342559455e+02,2.912563736380689079e+02,3.459031345542753115e+02,2.075151386761208414e+02,2.012914899510215037e+02,4.757948856995935785e+02,2.518222591544108582e+02,9.484992027282714844e+00,2.294756323099136353e-01,-2.677215635776519775e-01,3.910000000000000000e+02
2.896843649140646448e+02,2.697855659928391105e+02,3.465724232433130965e+02,2.812191181669622893e+02,2.468793615891045192e+02,2.541679001493612304e+02,3.476208221965644043e+02,3.347991279040870722e+02,9.484992027282714844e+00,2.294756323099136353e-01,-2.677215635776519775e-01,3.920000000000000000e+02
3.139359284373495029e+02,2.948257788356568199e+02,3.759999690246913815e+02,2.679706964565702947e+02,2.719997791331988992e+02,2.819434690435155062e+02,2.836093067854963010e+02,3.586797169470301014e+02,9.484992027282714844e+00,2.294756323099136353e-01,-2.677215635776519775e-01,3.930000000000000000e+02
2.797835414367000340e+02,2.535644697976240423e+02,3.374798628318822011e+02,3.208836634746403433e+02,2.473419000547146425e+02,2.428335321187769296e+02,3.699482618651818484e+02,2.883978956726714387e+02,9.484992027282714844e+00,2.294756323099136353e-01,-2.677215635776519775e-01,3.940000000000000000e+02
2.335935860417521326e+02,2.022922838251834037e+02,2.829860437358729541e+02,3.631443627495609690e+02,2.064019955828262027e+02,1.875534953305323143e+02,4.856725443686009385e+02,2.184806044828728773e+02,9.484992027282714844e+00,1.147378161549568176e-01,-1.912296712398529053e-01,3.950000000000000000e+02
2.382909070985260769e+02,2.124855726094174315e+02,2.861163015622369130e+02,3.330855775835880195e+02,2.046855225114049972e+02,1.892716433204332134e+02,4.695145904743403662e+02,2.425511274636810413e+02,9.484992027282714844e+00,1.147378161549568176e-01,-1.912296712398529053e-01,3.960000000000000000e+02
