F3,F4,C3,C4,P3,P4,Cz,Pz,Accel_x,Accel_y,Accel_z,Sample
1.728039933368563652e-11,-1.045918907038867474e-11,-1.409716787748038769e-11,-8.640199666842818260e-12,1.091393642127513885e-11,-2.000888343900442123e-11,2.773958840407431126e-11,-7.275957614183425903e-12,9.523238182067871094e+00,2.677215635776519775e-01,-3.059675097465515137e-01,0.000000000000000000e+00
-6.060622325405283846e+02,-4.483443334151204454e+02,-3.280092410194611148e+02,-3.092076842160086017e+02,-4.209519423364213253e+02,-2.541184711362466260e+02,-8.146391576177315983e+02,-4.416554194043685584e+02,9.523238182067871094e+00,2.677215635776519775e-01,-3.059675097465515137e-01,1.000000000000000000e+00
-8.069593282373739385e+02,-6.082903417545619504e+02,-3.970651607307700033e+02,-4.129524854525088813e+02,-5.526105972065286096e+02,-3.199244395026912571e+02,-1.152843323031146610e+03,-5.303414923294810706e+02,9.523238182067871094e+00,2.677215635776519775e-01,-3.059675097465515137e-01,2.000000000000000000e+00
-6.783122714883861590e+02,-5.364810032202788079e+02,-2.725289068437759852e+02,-7.945761820635602817e+02,-4.554010968184054491e+02,-2.417893989651838638e+02,-1.107701687100306572e+03,-3.933149374049276048e+02,9.523238182067871094e+00,2.677215635776519775e-01,-3.059675097465515137e-01,3.000000000000000000e+00
-5.249608044844512733e+02,-4.411412208576361991e+02,-1.495905747520178011e+02,-1.648982763523715448e+03,-3.519660200530950078e+02,-1.583265950850386616e+02,-1.114074709081783112e+03,-3.049816464971402183e+02,9.523238182067871094e+00,2.677215635776519775e-01,-3.059675097465515137e-01,4.000000000000000000e+00
-3.867703252106766740e+02,-3.233968438084814352e+02,-1.465739328056997692e+01,-2.222836506660360101e+03,-2.581497955251925305e+02,-4.907797333112148408e+01,-1.473281273390498882e+03,-2.028417794124059128e+02,9.523238182067871094e+00,2.677215635776519775e-01,-3.059675097465515137e-01,5.000000000000000000e+00
-1.425152651094822431e+02,-8.999264960703249017e+01,2.381035815823984194e+02,-2.057163302519995341e+03,-7.058978080097449492e+01,1.636863566396559690e+02,-2.098115304893723533e+03,7.376948750057749749e+01,9.523238182067871094e+00,2.677215635776519775e-01,-3.059675097465515137e-01,6.000000000000000000e+00
1.476768076555267726e+02,1.788624967290552377e+02,5.376883868446989254e+02,-1.914019206335427043e+03,1.656401719646164565e+02,4.080605364230286796e+02,-2.707863967825771397e+03,3.879059792652496981e+02,9.523238182067871094e+00,2.677215635776519775e-01,-3.059675097465515137e-01,7.000000000000000000e+00
3.357544054511631657e+02,3.417906817222171867e+02,7.363939980962472873e+02,-2.507845131641254284e+03,3.286455162316283349e+02,5.606336211103380265e+02,-3.186971909467903970e+03,5.261433413656370703e+02,9.523238182067871094e+00,2.677215635776519775e-01,-3.059675097465515137e-01,8.000000000000000000e+00
4.610829660872796012e+02,4.449889131696897948e+02,8.619422744378541665e+02,-3.242737792134173105e+03,4.398890990002128092e+02,6.562699685253533062e+02,-3.687132412871765155e+03,5.767081286711611483e+02,9.523238182067871094e+00,2.677215635776519775e-01,-3.059675097465515137e-01,9.000000000000000000e+00
6.561621337357878474e+02,6.247264628920636369e+02,1.051151189360700755e+03,-3.211569061328039425e+03,5.994359864856999138e+02,8.143067584027569410e+02,-4.339723802182567852e+03,7.598605887806465944e+02,9.523238182067871094e+00,2.677215635776519775e-01,-3.059675097465515137e-01,1.000000000000000000e+01
9.147585696069836558e+02,8.763562668191750618e+02,1.323597401582757357e+03,-2.704946427615809625e+03,8.077482146459842625e+02,1.042607501740680618e+03,-5.072336718089649366e+03,1.066865213994586838e+03,9.523238182067871094e+00,2.677215635776519775e-01,-3.059675097465515137e-01,1.100000000000000000e+01
1.159329569758292791e+03,1.108167271669036381e+03,1.592109553546685902e+03,-2.730548745817631698e+03,1.014279268730207377e+03,1.269509658095843406e+03,-5.842007309522208743e+03,1.326412744846599480e+03,9.523238182067871094e+00,2.677215635776519775e-01,-3.059675097465515137e-01,1.200000000000000000e+01
1.370667399268253121e+03,1.287159398272784074e+03,1.800220097279467154e+03,-3.483305317750481663e+03,1.205436693350351106e+03,1.456597827228832330e+03,-6.655407423853233922e+03,1.470795988933244644e+03,9.523238182067871094e+00,2.677215635776519775e-01,-3.059675097465515137e-01,1.300000000000000000e+01
1.530063933553142533e+03,1.413544153326171454e+03,1.944394900024504523e+03,-4.159820772133861283e+03,1.351656523012093203e+03,1.585301750619387349e+03,-7.316481348621202415e+03,1.563571317009193990e+03,9.523238182067871094e+00,2.677215635776519775e-01,-3.059675097465515137e-01,1.400000000000000000e+01
1.652684203557481396e+03,1.530584526701415371e+03,2.082156180004179987e+03,-4.156434748748303718e+03,1.457147478334649577e+03,1.692990612751529170e+03,-7.818189972715472322e+03,1.707869223198819100e+03,9.523238182067871094e+00,2.677215635776519775e-01,-3.059675097465515137e-01,1.500000000000000000e+01
1.869356395141988060e+03,1.757988724692740334e+03,2.320927335109806336e+03,-3.766749517230783567e+03,1.643386010868056246e+03,1.906378224016259310e+03,-8.678478692629998477e+03,1.976408516326524932e+03,9.523238182067871094e+00,2.677215635776519775e-01,-3.059675097465515137e-01,1.600000000000000000e+01
2.189079641405563507e+03,2.074439959067409291e+03,2.633289979400767606e+03,-3.585824528832468786e+03,1.927308063562344614e+03,2.211952105162373300e+03,-9.929705573571240166e+03,2.279880724705009015e+03,9.523238182067871094e+00,2.677215635776519775e-01,-3.059675097465515137e-01,1.700000000000000000e+01
2.371136822310466414e+03,2.239675138364512804e+03,2.817695094158077609e+03,-3.738157028029880621e+03,2.094147328675942845e+03,2.372633636062562346e+03,-1.068051265132645858e+04,2.412553661070861381e+03,9.523238182067871094e+00,2.677215635776519775e-01,-3.059675097465515137e-01,1.800000000000000000e+01
2.382077575265405358e+03,2.236432836136262267e+03,2.857871999351891645e+03,-3.963010724779733664e+03,2.107419226609896668e+03,2.366995425267840346e+03,-1.089585200318534407e+04,2.408564185720881142e+03,9.523238182067871094e+00,2.677215635776519775e-01,-3.059675097465515137e-01,1.900000000000000000e+01
2.557165376083995397e+03,2.399163748922253035e+03,3.021506705095728648e+03,-4.077438845959111404e+03,2.262355194691735960e+03,2.521101277910307545e+03,-1.182538999670350313e+04,2.568001032846503676e+03,9.523238182067871094e+00,2.677215635776519775e-01,-3.059675097465515137e-01,2.000000000000000000e+01
2.927022713295622907e+03,2.761777486282047903e+03,3.351745609081244766e+03,-4.018395448723035315e+03,2.586410498943117091e+03,2.868961891220879806e+03,-1.337741353020107999e+04,2.918791703971492097e+03,9.523238182067871094e+00,2.677215635776519775e-01,-3.059675097465515137e-01,2.100000000000000000e+01
3.083111126428128046e+03,2.926432431931280917e+03,3.546972182854887251e+03,-3.749855081944953781e+03,2.719730182131928814e+03,3.024248132340544089e+03,-1.398200064532556826e+04,3.121632168409040787e+03,9.523238182067871094e+00,2.677215635776519775e-01,-3.059675097465515137e-01,2.200000000000000000e+01
3.059550996919359477e+03,2.903037840648045403e+03,3.588416333380640026e+03,-3.433041153258583108e+03,2.702935384301088106e+03,3.002335211553786849e+03,-1.411567202063432160e+04,3.125545347806233167e+03,9.523238182067871094e+00,2.677215635776519775e-01,-3.059675097465515137e-01,2.300000000000000000e+01
3.324919280584811531e+03,3.132063442092511195e+03,3.791636994663560472e+03,-3.307670880762918387e+03,2.953871053883684453e+03,3.232573031333838571e+03,-1.562168678334738797e+04,3.261597289230766364e+03,9.523238182067871094e+00,2.677215635776519775e-01,-3.059675097465515137e-01,2.400000000000000000e+01
3.679813411514831387e+03,3.458185551271798886e+03,4.067684836274680492e+03,-3.233738254410530772e+03,3.272305966926214296e+03,3.549110724280030809e+03,-1.704784707081082888e+04,3.517847518967481847e+03,9.523238182067871094e+00,2.677215635776519775e-01,-3.059675097465515137e-01,2.500000000000000000e+01
3.582579517816918724e+03,3.387724854948097345e+03,4.079461504888654417e+03,-2.935595236230251885e+03,3.164380234098524852e+03,3.466162573145359602e+03,-1.587721090909422128e+04,3.584904193564825164e+03,9.523238182067871094e+00,2.677215635776519775e-01,-3.059675097465515137e-01,2.600000000000000000e+01
3.561627859103424726e+03,3.379931305832792987e+03,4.149318458282428765e+03,-2.697482274193761896e+03,3.134897112627583738e+03,3.456808821589306717e+03,-1.494225063240444433e+04,3.672891613934488305e+03,9.523238182067871094e+00,2.677215635776519775e-01,-3.059675097465515137e-01,2.700000000000000000e+01
4.334814098056722287e+03,4.079613992386132395e+03,4.713410316560347383e+03,-2.869484599854278258e+03,3.851267571805641637e+03,4.162460184152073452e+03,-1.806264905471695602e+04,4.134570589011407719e+03,9.523238182067871094e+00,2.677215635776519775e-01,-3.059675097465515137e-01,2.800000000000000000e+01
4.677084896051841497e+03,4.383255365965917008e+03,4.959956612367449452e+03,-2.768356664416101466e+03,4.175536025624495778e+03,4.462761102521504654e+03,-2.012304745799628290e+04,4.311975734886612372e+03,9.523238182067871094e+00,2.677215635776519775e-01,-3.059675097465515137e-01,2.900000000000000000e+01
2.725423597206071463e+03,2.606613227352444937e+03,3.692951967140291345e+03,-1.396137255302572385e+03,2.382715008067705639e+03,2.667573944899411345e+03,-1.252145305177774753e+04,3.218931941207266846e+03,9.523238182067871094e+00,2.677215635776519775e-01,-3.059675097465515137e-01,3.000000000000000000e+01
-6.351971327979124453e+02,-4.444571190265969562e+02,1.525202717439931121e+03,7.422650969249607442e+02,-7.108887956922822013e+02,-4.042215646669942544e+02,1.656348977209431041e+03,1.376939253918593067e+03,9.484992027282714844e+00,3.059675097465515137e-01,-3.059675097465515137e-01,3.100000000000000000e+01
-2.508470049249329350e+03,-2.141511555348622551e+03,3.550912127685851374e+02,2.047151023426576330e+03,-2.431744289245511027e+03,-2.109926500637103800e+03,9.928922022111761180e+03,3.779723555873088117e+02,9.484992027282714844e+00,3.059675097465515137e-01,-3.059675097465515137e-01,3.200000000000000000e+01
-2.125464578923678800e+03,-1.793684830383803273e+03,6.524815760151846007e+02,2.092104325271480775e+03,-2.070125308268645313e+03,-1.760065709281879663e+03,8.227155861042901961e+03,6.055268845919957812e+02,9.484992027282714844e+00,3.059675097465515137e-01,-3.059675097465515137e-01,3.300000000000000000e+01
-1.421591122681157231e+03,-1.160197949614052504e+03,1.133071034309845572e+03,1.938485448598847825e+03,-1.414766078721854228e+03,-1.126692002066095711e+03,4.591169139340568108e+03,9.878541083739906981e+02,9.484992027282714844e+00,3.059675097465515137e-01,-3.059675097465515137e-01,3.400000000000000000e+01
-1.552907460028666947e+03,-1.276120538956104156e+03,1.071820133726286258e+03,2.211422285939233461e+03,-1.538446919268980082e+03,-1.252167465523160899e+03,4.849274807123967548e+03,9.508011373095296221e+02,9.484992027282714844e+00,3.059675097465515137e-01,-3.059675097465515137e-01,3.500000000000000000e+01
-1.686950348325091454e+03,-1.375723284448503819e+03,1.045519201874099963e+03,2.451606345813544067e+03,-1.673044289886351180e+03,-1.363701609116469172e+03,6.085972311920984794e+03,9.850376664725804403e+02,9.484992027282714844e+00,3.059675097465515137e-01,-3.059675097465515137e-01,3.600000000000000000e+01
-1.290581582528027866e+03,-9.942175694713796474e+02,1.377803321349034377e+03,2.405892506386207515e+03,-1.315014643441872522e+03,-9.848863949105584652e+02,5.157978132895199451e+03,1.304308489550807280e+03,9.484992027282714844e+00,3.059675097465515137e-01,-3.059675097465515137e-01,3.700000000000000000e+01
-1.015582241034818480e+03,-7.471487694243137412e+02,1.593271189481584770e+03,2.474059773444526854e+03,-1.056705554417220355e+03,-7.322742381881053007e+02,3.713804640986674258e+03,1.462088072644985459e+03,9.484992027282714844e+00,3.059675097465515137e-01,-3.059675097465515137e-01,3.800000000000000000e+01
-1.135386057368526281e+03,-8.702850598507852737e+02,1.516404422972932480e+03,2.772223901572122941e+03,-1.159061865036263498e+03,-8.564026080909602570e+02,3.347012630781871394e+03,1.354278643436289030e+03,9.484992027282714844e+00,3.059675097465515137e-01,-3.059675097465515137e-01,3.900000000000000000e+01
-1.116198372929665311e+03,-8.457551715858585339e+02,1.548305072388199278e+03,2.934559491981478459e+03,-1.143781051351423685e+03,-8.480579851211589357e+02,3.030666091754525041e+03,1.393410130954538545e+03,9.484992027282714844e+00,3.059675097465515137e-01,-3.059675097465515137e-01,4.000000000000000000e+01
-8.081630912704201819e+02,-5.346796838400887282e+02,1.810462801283482349e+03,2.884977067502089540e+03,-8.693820915452122335e+02,-5.568758693937099906e+02,2.302234811950605945e+03,1.675554784979310625e+03,9.484992027282714844e+00,3.059675097465515137e-01,-3.059675097465515137e-01,4.100000000000000000e+01
-6.172342415173407062e+02,-3.377385228925990077e+02,2.000731742925424896e+03,2.926365440502097499e+03,-6.940572150139364567e+02,-3.660742192687569059e+02,2.140081870746302684e+03,1.869322560338946005e+03,9.484992027282714844e+00,3.059675097465515137e-01,-3.059675097465515137e-01,4.200000000000000000e+01
-6.292290098094154018e+02,-3.528753246962688763e+02,2.020996912929431801e+03,3.137750380091484203e+03,-6.929998982262850404e+02,-3.737472866035814150e+02,2.512468033491881670e+03,1.858183557136880609e+03,9.484992027282714844e+00,3.059675097465515137e-01,-3.059675097465515137e-01,4.300000000000000000e+01
-5.774748209064559887e+02,-3.204147181884850397e+02,2.055060514752444760e+03,3.313465404371387194e+03,-6.348678831600764170e+02,-3.371967769355757127e+02,2.305662064503894726e+03,1.850788145502559018e+03,9.484992027282714844e+00,3.059675097465515137e-01,-3.059675097465515137e-01,4.400000000000000000e+01
-4.191139333032685954e+02,-1.735915366696738147e+02,2.175550141203051680e+03,3.370480133786904389e+03,-4.921303097648788025e+02,-2.000852264412058048e+02,1.543191687847068124e+03,1.969711747023485259e+03,9.484992027282714844e+00,3.059675097465515137e-01,-3.059675097465515137e-01,4.500000000000000000e+01
-2.868640032246080409e+02,-3.077912615871571234e+01,2.314835385698729624e+03,3.403265661749123865e+03,-3.803599441405630159e+02,-7.170808972844179152e+01,1.441166829948391978e+03,2.143469323525209347e+03,9.484992027282714844e+00,3.059675097465515137e-01,-3.059675097465515137e-01,4.600000000000000000e+01
-1.813743914268258095e+02,8.407825675123376641e+01,2.441479317697823262e+03,3.478154110891887740e+03,-2.845417450920558622e+02,3.912199330173621092e+01,2.154791451083763604e+03,2.278362795799033847e+03,9.484992027282714844e+00,3.059675097465515137e-01,-3.059675097465515137e-01,4.700000000000000000e+01
-7.625142608839519198e+01,1.774317311758618416e+02,2.533147474088275885e+03,3.599976167332125897e+03,-1.764984859713703145e+02,1.397503486524939262e+02,2.138740611015513423e+03,2.327443631753716545e+03,9.484992027282714844e+00,3.059675097465515137e-01,-3.059675097465515137e-01,4.800000000000000000e+01
-1.697135936926702016e+01,2.191074485895658199e+02,2.565362905861749823e+03,3.744608544869063735e+03,-1.112857060761352841e+02,1.855488107391324775e+02,7.403186176145054560e+02,2.318662233478651615e+03,9.484992027282714844e+00,3.059675097465515137e-01,-3.059675097465515137e-01,4.900000000000000000e+01
3.202206810813618176e+01,2.665781060073800290e+02,2.605097598700698654e+03,3.840864357680709873e+03,-6.986027114313355924e+01,2.232766793528253402e+02,2.478243541815313620e+02,2.367820427717997518e+03,9.484992027282714844e+00,3.059675097465515137e-01,-3.059675097465515137e-01,5.000000000000000000e+01
1.602988382849334812e+02,4.060985047879983085e+02,2.733660338041207524e+03,3.856299556558791664e+03,3.474182521468355844e+01,3.469793454887551434e+02,3.145788674336602526e+03,2.532181635273169377e+03,9.484992027282714844e+00,3.059675097465515137e-01,-3.059675097465515137e-01,5.100000000000000000e+01
3.214097721373304921e+02,5.729439865228412145e+02,2.890884698428036245e+03,3.879316653945595135e+03,1.780455112512358937e+02,5.080132727347408945e+02,7.882331013892064220e+03,2.693831566798960012e+03,9.484992027282714844e+00,2.677215635776519775e-01,-2.677215635776519775e-01,5.200000000000000000e+01
3.982579347669824301e+02,6.423511031681682653e+02,2.958825448958674315e+03,3.996417785734539848e+03,2.593083406369682962e+02,5.833253649629252777e+02,1.036786493852644890e+04,2.722705827721137666e+03,9.484992027282714844e+00,2.677215635776519775e-01,-2.677215635776519775e-01,5.300000000000000000e+01
4.075659703546375567e+02,6.406686682077468049e+02,2.952888553982654230e+03,4.149061049025773173e+03,2.788552838280500055e+02,5.842716437149033482e+02,9.623818265005142166e+03,2.680181418605184717e+03,9.484992027282714844e+00,2.677215635776519775e-01,-2.677215635776519775e-01,5.400000000000000000e+01
4.653815526819440720e+02,6.974230775317728330e+02,2.993622563608611927e+03,4.220271088732197313e+03,3.289093711983045978e+02,6.314981576027200845e+02,8.521239412305392761e+03,2.728717275250734929e+03,9.484992027282714844e+00,2.677215635776519775e-01,-2.677215635776519775e-01,5.500000000000000000e+01
6.010889689807659124e+02,8.428824939472292499e+02,3.123842463972374389e+03,4.209075770973844556e+03,4.457547723559030146e+02,7.662558568137453676e+02,8.848790284670008987e+03,2.894215173998855789e+03,9.484992027282714844e+00,2.677215635776519775e-01,-2.677215635776519775e-01,5.600000000000000000e+01
7.277649518407026790e+02,9.768121846631149765e+02,3.256382186646665104e+03,4.226394815131106043e+03,5.682421136013927025e+02,9.026598575098614674e+02,9.328946365698504451e+03,3.035870442712703152e+03,9.484992027282714844e+00,2.677215635776519775e-01,-2.677215635776519775e-01,5.700000000000000000e+01
7.780599682555462095e+02,1.020427407319628628e+03,3.304191607229566671e+03,4.335658662308452222e+03,6.325306409484257983e+02,9.586169731332786341e+02,8.817095837866274451e+03,3.048136847973445128e+03,9.484992027282714844e+00,2.677215635776519775e-01,-2.677215635776519775e-01,5.800000000000000000e+01
7.894048237905515180e+02,1.017063700439181048e+03,3.295260431852164402e+03,4.470298588323295917e+03,6.530734438547435730e+02,9.620802045335349248e+02,8.106021882117505811e+03,3.002188495782456812e+03,9.484992027282714844e+00,2.677215635776519775e-01,-2.677215635776519775e-01,5.900000000000000000e+01
8.407660588214214386e+02,1.063041061159329274e+03,3.326410322489754435e+03,4.530605931578702439e+03,6.946630047922319591e+02,1.003398273691818758e+03,8.036827267828494769e+03,3.041595108086683467e+03,9.484992027282714844e+00,2.677215635776519775e-01,-2.677215635776519775e-01,6.000000000000000000e+01
9.588990155964672795e+02,1.189486581645072874e+03,3.439294784125169826e+03,4.512374976184669322e+03,7.949934139174222310e+02,1.123091992571315814e+03,8.205910752970285102e+03,3.191266918511998483e+03,9.484992027282714844e+00,2.677215635776519775e-01,-2.677215635776519775e-01,6.100000000000000000e+01
1.078611602891731309e+03,1.314733436048257317e+03,3.560560459231322966e+03,4.516119758029457444e+03,9.059536708452162657e+02,1.249571269714749405e+03,8.078573606399105302e+03,3.319140859602641740e+03,9.484992027282714844e+00,2.677215635776519775e-01,-2.677215635776519775e-01,6.200000000000000000e+01
1.133091756182714107e+03,1.356807245682287885e+03,3.604246786020397394e+03,4.608149480376592692e+03,9.623495682244108593e+02,1.298219727715093313e+03,7.707344999796722732e+03,3.319878724861735009e+03,9.484992027282714844e+00,2.677215635776519775e-01,-2.677215635776519775e-01,6.300000000000000000e+01
1.142638046839666004e+03,1.346804330257147285e+03,3.589666133780497148e+03,4.729428148337416133e+03,9.739976160352871375e+02,1.288548167200601938e+03,7.332459038332751334e+03,3.261083367850342711e+03,9.484992027282714844e+00,2.677215635776519775e-01,-2.677215635776519775e-01,6.400000000000000000e+01
1.185319398372675550e+03,1.386475912403923303e+03,3.613737278432630774e+03,4.777964381917889114e+03,1.010576119414038885e+03,1.316702792649658250e+03,7.102621751275446513e+03,3.289135576992969163e+03,9.484992027282714844e+00,2.677215635776519775e-01,-2.677215635776519775e-01,6.500000000000000000e+01
1.291856770531505163e+03,1.507376838824057359e+03,3.717061534544819096e+03,4.749862306860670287e+03,1.103829821806097698e+03,1.422510763077330466e+03,7.038483751855418632e+03,3.426901567479430014e+03,9.484992027282714844e+00,2.677215635776519775e-01,-2.677215635776519775e-01,6.600000000000000000e+01
1.404212600288609792e+03,1.626756970608950496e+03,3.827544540305318151e+03,4.744122764100962740e+03,1.205578842766527487e+03,1.535929178164214591e+03,6.980625235486571910e+03,3.543724246390631379e+03,9.484992027282714844e+00,2.677215635776519775e-01,-2.677215635776519775e-01,6.700000000000000000e+01
1.453287739023204495e+03,1.662099670503197331e+03,3.859542975558243597e+03,4.825309148611483579e+03,1.256063157971180772e+03,1.575591796704853323e+03,6.757772350807183102e+03,3.537465766804256418e+03,9.484992027282714844e+00,2.677215635776519775e-01,-2.677215635776519775e-01,6.800000000000000000e+01
1.453622836981512819e+03,1.644803945085724081e+03,3.832721467781650972e+03,4.934465563419407772e+03,1.264822557774291226e+03,1.561057636176680717e+03,6.367921472838194859e+03,3.475369135540529442e+03,9.484992027282714844e+00,2.677215635776519775e-01,-2.677215635776519775e-01,6.900000000000000000e+01
1.485777174220359029e+03,1.675509612292640668e+03,3.845658532213059061e+03,4.971150391577422852e+03,1.295570460793641132e+03,1.584436542698266749e+03,5.953451627914208075e+03,3.500053350933512775e+03,9.484992027282714844e+00,2.677215635776519775e-01,-2.677215635776519775e-01,7.000000000000000000e+01
1.585969915704280083e+03,1.784692178730434989e+03,3.939568735617686798e+03,4.932227094595442395e+03,1.379275026600442288e+03,1.683129483549128508e+03,5.777226959795609218e+03,3.632379523591405814e+03,9.484992027282714844e+00,2.677215635776519775e-01,-2.677215635776519775e-01,7.100000000000000000e+01
1.694127171251219352e+03,1.891245984364426931e+03,4.041214978237776450e+03,4.915492916877696189e+03,1.472906851519180236e+03,1.789008370484783882e+03,5.967279223626509520e+03,3.742964251286962735e+03,9.484992027282714844e+00,2.677215635776519775e-01,-2.677215635776519775e-01,7.200000000000000000e+01
1.736416640195602213e+03,1.914930985784028053e+03,4.064725272677397697e+03,4.984250688865107804e+03,1.518118218244343097e+03,1.822094409887139136e+03,6.104352939454141961e+03,3.730343367694111748e+03,9.484992027282714844e+00,2.677215635776519775e-01,-2.677215635776519775e-01,7.300000000000000000e+01
1.728969208104068457e+03,1.887769970736297182e+03,4.030337159961910402e+03,5.080910255769330433e+03,1.520587469463756406e+03,1.799700934712553590e+03,5.778646831476828993e+03,3.659598572116260129e+03,9.484992027282714844e+00,2.677215635776519775e-01,-2.677215635776519775e-01,7.400000000000000000e+01
1.755271011645416820e+03,1.911400358655860146e+03,4.035170953380573337e+03,5.108089684226421014e+03,1.542191624704062633e+03,1.812341782974390298e+03,5.686578037323121862e+03,3.671362030191196936e+03,9.484992027282714844e+00,2.677215635776519775e-01,-2.677215635776519775e-01,7.500000000000000000e+01
1.848213029002622534e+03,2.017717146940457496e+03,4.118147777064503316e+03,5.063596309636657679e+03,1.615627056066738533e+03,1.899627978036951390e+03,6.953686167991472757e+03,3.788146824046407346e+03,9.484992027282714844e+00,2.677215635776519775e-01,-2.677215635776519775e-01,7.600000000000000000e+01
1.943616620646867887e+03,2.123648429397718701e+03,4.206821552404925569e+03,5.042908673140374958e+03,1.698742753276097574e+03,1.996136169369187883e+03,9.161381610930267925e+03,3.884947379144579827e+03,9.523238182067871094e+00,2.677215635776519775e-01,-3.059675097465515137e-01,7.700000000000000000e+01
1.970069049889215421e+03,2.144330746146651563e+03,4.218472367888650297e+03,5.106489274357726572e+03,1.733126330066122136e+03,2.022508790864913863e+03,1.057321040886296578e+04,3.863474503396571890e+03,9.523238182067871094e+00,2.677215635776519775e-01,-3.059675097465515137e-01,7.800000000000000000e+01
1.948521107991732606e+03,2.110025721645087742e+03,4.174742720572865437e+03,5.195701293485612041e+03,1.726078065163535939e+03,1.996346810597413423e+03,1.055370310936207898e+04,3.788270432656845060e+03,9.523238182067871094e+00,2.677215635776519775e-01,-3.059675097465515137e-01,7.900000000000000000e+01
1.963941542250351631e+03,2.124053623734186658e+03,4.171814793803047905e+03,5.213808194975543302e+03,1.741025475222440946e+03,2.007991302522971637e+03,1.015069899076752336e+04,3.796869256148034765e+03,9.523238182067871094e+00,2.677215635776519775e-01,-3.059675097465515137e-01,8.000000000000000000e+01
2.049233940599974630e+03,2.219230033562883364e+03,4.247807820202498988e+03,5.159998098859185120e+03,1.809568776354618876e+03,2.094138669138294972e+03,1.015629896439012009e+04,3.909369328524658613e+03,9.523238182067871094e+00,2.677215635776519775e-01,-3.059675097465515137e-01,8.100000000000000000e+01
2.140230615467173720e+03,2.312827077982847186e+03,4.329980548264851677e+03,5.130642642161212279e+03,1.887690540780538413e+03,2.185978379390964164e+03,1.023144648326581228e+04,4.000506815884148182e+03,9.523238182067871094e+00,2.677215635776519775e-01,-3.059675097465515137e-01,8.200000000000000000e+01
2.163148542339805317e+03,2.323080126882931836e+03,4.334393014512864283e+03,5.185852822955900592e+03,1.916563657574734407e+03,2.204837408617517667e+03,1.011877302933456667e+04,3.972293713484232740e+03,9.523238182067871094e+00,2.677215635776519775e-01,-3.059675097465515137e-01,8.300000000000000000e+01
2.135767888476499138e+03,2.283738591459698000e+03,4.280940164556166565e+03,5.266641195196099943e+03,1.903448026011209095e+03,2.171487192448704718e+03,1.011836555624117136e+04,3.888879746572015392e+03,9.523238182067871094e+00,2.677215635776519775e-01,-3.059675097465515137e-01,8.400000000000000000e+01
2.143221375176313813e+03,2.296232646919226681e+03,4.265678094570298526e+03,5.277267164853513350e+03,1.911607757548317295e+03,2.176957731349342794e+03,1.024180729163408068e+04,3.888176958699383704e+03,9.523238182067871094e+00,2.677215635776519775e-01,-3.059675097465515137e-01,8.500000000000000000e+01
2.220483323148178897e+03,2.387549505935840443e+03,4.329051563708626418e+03,5.217706066736946923e+03,1.973547947561843557e+03,2.256629233121707784e+03,1.014678561608718883e+04,3.992214184500917781e+03,9.523238182067871094e+00,2.677215635776519775e-01,-3.059675097465515137e-01,8.600000000000000000e+01
2.304323647441439334e+03,2.473151944859305331e+03,4.401358615489998556e+03,5.183323780080280812e+03,2.046239076239603946e+03,2.342059232884753783e+03,9.907823044807391852e+03,4.076757197937141427e+03,9.523238182067871094e+00,2.677215635776519775e-01,-3.059675097465515137e-01,8.700000000000000000e+01
2.322207916177199877e+03,2.475563315311759197e+03,4.399914100133822103e+03,5.233430057142647456e+03,2.069977848992135478e+03,2.355852243571075633e+03,9.901220112672912364e+03,4.042335700745094073e+03,9.523238182067871094e+00,2.677215635776519775e-01,-3.059675097465515137e-01,8.800000000000000000e+01
2.293292957855379882e+03,2.431476867806066366e+03,4.343591961182220984e+03,5.310045893040467490e+03,2.050827201473896821e+03,2.317867132538171063e+03,1.007739538361389350e+04,3.951575424529639349e+03,9.523238182067871094e+00,2.677215635776519775e-01,-3.059675097465515137e-01,8.900000000000000000e+01
2.300089817966898863e+03,2.439322330603209593e+03,4.326817928307325928e+03,5.317734396884456146e+03,2.052974170741765192e+03,2.316793444717902275e+03,1.007763986073868364e+04,3.943021906514163220e+03,9.523238182067871094e+00,2.677215635776519775e-01,-3.059675097465515137e-01,9.000000000000000000e+01
2.372566539832550461e+03,2.523337877779488736e+03,4.388892098169206292e+03,5.254394264922741058e+03,2.110485673244868849e+03,2.387166429510328271e+03,9.871014955122604078e+03,4.039816041840559137e+03,9.523238182067871094e+00,2.677215635776519775e-01,-3.059675097465515137e-01,9.100000000000000000e+01
2.447392152854454253e+03,2.602301257941424865e+03,4.458998133642692665e+03,5.213849959734019649e+03,2.179977747828871088e+03,2.461768768049656956e+03,9.730291114906875009e+03,4.117678227750142469e+03,9.523238182067871094e+00,2.677215635776519775e-01,-3.059675097465515137e-01,9.200000000000000000e+01
2.456934163416023694e+03,2.602142723468620716e+03,4.453576569748323891e+03,5.256426072046677291e+03,2.200326820586801205e+03,2.465258177735612662e+03,9.768142404510568667e+03,4.077342827866370044e+03,9.523238182067871094e+00,2.677215635776519775e-01,-3.059675097465515137e-01,9.300000000000000000e+01
2.422802827142399110e+03,2.555692675699083793e+03,4.391858648264358635e+03,5.325235864674888944e+03,2.176994689096868569e+03,2.419077821321827287e+03,9.851097824152479006e+03,3.982428668795294470e+03,9.523238182067871094e+00,2.677215635776519775e-01,-3.059675097465515137e-01,9.400000000000000000e+01
2.425233684997891942e+03,2.555852625954001724e+03,4.369015440249542735e+03,5.324238938266302284e+03,2.173936545879104870e+03,2.411976108479424056e+03,9.827639417849190067e+03,3.971009035240250796e+03,9.523238182067871094e+00,2.677215635776519775e-01,-3.059675097465515137e-01,9.500000000000000000e+01
2.491713436990001810e+03,2.629028106967364693e+03,4.423911323706243820e+03,5.251037596812228003e+03,2.224670856147339691e+03,2.477495379389324626e+03,9.680264422598911551e+03,4.064089316574036275e+03,9.523238182067871094e+00,2.677215635776519775e-01,-3.059675097465515137e-01,9.600000000000000000e+01
2.558738213950819500e+03,2.700172031394316946e+03,4.485274352267917493e+03,5.200678845746076149e+03,2.286083678726100516e+03,2.548296073049632014e+03,9.533062922464974690e+03,4.137099466533233681e+03,9.523238182067871094e+00,2.677215635776519775e-01,-3.059675097465515137e-01,9.700000000000000000e+01
2.559695853890129911e+03,2.695387408634341227e+03,4.470990034411343913e+03,5.234377180764535296e+03,2.298873054881988537e+03,2.549805643715457791e+03,9.522025949199036404e+03,4.093467487919524956e+03,9.523238182067871094e+00,2.677215635776519775e-01,-3.059675097465515137e-01,9.800000000000000000e+01
2.517024229452848886e+03,2.642577717412026686e+03,4.401980894683532824e+03,5.294857502749703599e+03,2.270389553881996108e+03,2.503036480601834683e+03,9.608996003922165983e+03,3.998392820655692503e+03,9.523238182067871094e+00,2.677215635776519775e-01,-3.059675097465515137e-01,9.900000000000000000e+01
2.510530283416253951e+03,2.633256045438123692e+03,4.372856694504731422e+03,5.286047944649491910e+03,2.264606779881869898e+03,2.495137503748380368e+03,9.606015007061472716e+03,3.987567338197920890e+03,9.523238182067871094e+00,2.677215635776519775e-01,-3.059675097465515137e-01,1.000000000000000000e+02
2.567212030693209272e+03,2.697447238526875026e+03,4.421413303627497044e+03,5.206684001401285059e+03,2.313178769696146446e+03,2.558985768736335103e+03,9.442518743761829683e+03,4.078792186269441117e+03,9.523238182067871094e+00,2.677215635776519775e-01,-3.059675097465515137e-01,1.010000000000000000e+02
2.626428411144674101e+03,2.762925870612882136e+03,4.477580794614207662e+03,5.152324977376250899e+03,2.371454191520704626e+03,2.627302982326300480e+03,9.278737755824209671e+03,4.147393167174867813e+03,9.523238182067871094e+00,2.677215635776519775e-01,-3.059675097465515137e-01,1.020000000000000000e+02
2.626002170289068999e+03,2.755203191596204761e+03,4.460730609312680826e+03,5.182582015333993695e+03,2.380888593726156614e+03,2.624617234456353799e+03,9.276950176301472311e+03,4.098456690621007510e+03,9.523238182067871094e+00,2.677215635776519775e-01,-3.059675097465515137e-01,1.030000000000000000e+02
2.587276917694472104e+03,2.700639010736471391e+03,4.390294202414641404e+03,5.238132847644998037e+03,2.350394549912594812e+03,2.571248819368013756e+03,9.368303775661968757e+03,3.997153265479300899e+03,9.446745872497558594e+00,3.059675097465515137e-01,-3.059675097465515137e-01,1.040000000000000000e+02
2.583864715763998902e+03,2.690160458024275613e+03,4.358305789205229303e+03,5.223463685631754743e+03,2.342943752590131226e+03,2.555876010463422972e+03,9.353710839776824287e+03,3.978026698060834406e+03,9.446745872497558594e+00,3.059675097465515137e-01,-3.059675097465515137e-01,1.050000000000000000e+02
2.640379215795557229e+03,2.753323327310718014e+03,4.402636678768390993e+03,5.140152209102679990e+03,2.387221602931784219e+03,2.613564225436041397e+03,9.185060352250080541e+03,4.059780216500319966e+03,9.446745872497558594e+00,3.059675097465515137e-01,-3.059675097465515137e-01,1.060000000000000000e+02
2.698559590221543203e+03,2.816434865402635296e+03,4.454778380330521031e+03,5.084825366448407294e+03,2.438247393108791584e+03,2.677415490441845577e+03,9.021139894259466018e+03,4.120583305131287489e+03,9.446745872497558594e+00,3.059675097465515137e-01,-3.059675097465515137e-01,1.070000000000000000e+02
2.695159896709496479e+03,2.803729059986127140e+03,4.433891918267815527e+03,5.114779483160388736e+03,2.440727632108829312e+03,2.671471801210969716e+03,9.011997229188715210e+03,4.067030781873680098e+03,9.446745872497558594e+00,3.059675097465515137e-01,-3.059675097465515137e-01,1.080000000000000000e+02
2.647631121603866632e+03,2.742854369532561122e+03,4.358273804608641512e+03,5.168705883154257208e+03,2.405598029362606212e+03,2.616019659146992581e+03,9.092309846431859114e+03,3.963242679140127620e+03,9.446745872497558594e+00,3.059675097465515137e-01,-3.059675097465515137e-01,1.090000000000000000e+02
2.632233675741479601e+03,2.727916354737310030e+03,4.320314478757687539e+03,5.151993877614602752e+03,2.394129071116198247e+03,2.598814849410805891e+03,9.072679585067120570e+03,3.942001260125698991e+03,9.446745872497558594e+00,3.059675097465515137e-01,-3.059675097465515137e-01,1.100000000000000000e+02
2.681141160066125394e+03,2.789802606703444781e+03,4.358446081546776441e+03,5.066915837113892849e+03,2.433122000947406377e+03,2.652866641510574027e+03,8.901471003674261738e+03,4.020688899033908001e+03,9.446745872497558594e+00,3.059675097465515137e-01,-3.059675097465515137e-01,1.110000000000000000e+02
2.737265640095378785e+03,2.853431633499675172e+03,4.403390149243372434e+03,5.008349326482365541e+03,2.478199765803908122e+03,2.710935118263491859e+03,8.735593632262192841e+03,4.076314613508801358e+03,9.446745872497558594e+00,3.059675097465515137e-01,-3.059675097465515137e-01,1.120000000000000000e+02
2.732066938133286840e+03,2.841784982621451945e+03,4.374694861682941337e+03,5.032999045581353130e+03,2.474942545740104833e+03,2.699181634374208897e+03,8.723221183418865621e+03,4.015151475836772988e+03,9.446745872497558594e+00,3.059675097465515137e-01,-3.059675097465515137e-01,1.130000000000000000e+02
2.681336908813564150e+03,2.781784802568467967e+03,4.293459949426919593e+03,5.082451820048358059e+03,2.433820590793250631e+03,2.639311585018721416e+03,8.799395301816326537e+03,3.902811962035073520e+03,9.446745872497558594e+00,3.059675097465515137e-01,-3.059675097465515137e-01,1.140000000000000000e+02
2.663812413465232567e+03,2.765203994903845341e+03,4.253098209092730031e+03,5.063931983254939951e+03,2.416419694571037326e+03,2.618302864964117362e+03,8.776716974945422407e+03,3.874237578755041795e+03,9.446745872497558594e+00,3.059675097465515137e-01,-3.059675097465515137e-01,1.150000000000000000e+02
2.710577649966205627e+03,2.820702968620651063e+03,4.289314577623461446e+03,4.976849924119085699e+03,2.451733013335647229e+03,2.668551938475146926e+03,8.604387098197248633e+03,3.947951387323070776e+03,9.446745872497558594e+00,3.059675097465515137e-01,-3.059675097465515137e-01,1.160000000000000000e+02
2.761235716422117093e+03,2.874769997741560474e+03,4.331553854192859944e+03,4.912643085993441673e+03,2.496728950825510765e+03,2.723652734347723708e+03,8.437368734495619719e+03,4.001419996257756793e+03,9.446745872497558594e+00,3.059675097465515137e-01,-3.059675097465515137e-01,1.170000000000000000e+02
2.749147140931950617e+03,2.854221630964991164e+03,4.302093299689809101e+03,4.928988493904674215e+03,2.495038264478584097e+03,2.710234772003900616e+03,8.421266695328857168e+03,3.941106990792159195e+03,9.446745872497558594e+00,3.059675097465515137e-01,-3.059675097465515137e-01,1.180000000000000000e+02
2.694896323977177417e+03,2.787960758501986675e+03,4.222709846155569721e+03,4.970970677455321493e+03,2.453464633634039274e+03,2.648904684986910070e+03,8.491493623708338419e+03,3.831099049551243297e+03,9.446745872497558594e+00,3.059675097465515137e-01,-3.059675097465515137e-01,1.190000000000000000e+02
2.676874894607592068e+03,2.767817162645738790e+03,4.182366060796757665e+03,4.947414546573114421e+03,2.431999039815811557e+03,2.625169848150187136e+03,8.463713640507878154e+03,3.803098922193462386e+03,9.446745872497558594e+00,3.059675097465515137e-01,-3.059675097465515137e-01,1.200000000000000000e+02
2.722203167707806642e+03,2.821770130210225034e+03,4.214123612438532291e+03,4.857069246383296559e+03,2.461564222490509565e+03,2.671014689975544570e+03,8.288946922071787412e+03,3.874057081381422904e+03,9.446745872497558594e+00,3.059675097465515137e-01,-3.059675097465515137e-01,1.210000000000000000e+02
2.770349475977584007e+03,2.873913644588382340e+03,4.250803424758101755e+03,4.790238756844815725e+03,2.501953351462775572e+03,2.720908611595174079e+03,8.120855208068582215e+03,3.923457115482340669e+03,9.446745872497558594e+00,3.059675097465515137e-01,-3.059675097465515137e-01,1.220000000000000000e+02
2.757596719766787828e+03,2.848389414641808798e+03,4.217859332234342219e+03,4.803136089286746937e+03,2.497715269680101301e+03,2.702703360080023231e+03,8.103002445091979098e+03,3.860617950621173350e+03,9.446745872497558594e+00,3.059675097465515137e-01,-3.059675097465515137e-01,1.230000000000000000e+02
2.704216291989229831e+03,2.774866372073399361e+03,4.136005967082918687e+03,4.839192216104063846e+03,2.455635904585024036e+03,2.637197265620108737e+03,8.170545893683034592e+03,3.750360477743867705e+03,9.446745872497558594e+00,3.059675097465515137e-01,-3.059675097465515137e-01,1.240000000000000000e+02
2.685605405024366519e+03,2.747897743119588995e+03,4.093785279134212487e+03,4.807379670291042203e+03,2.436207949359470149e+03,2.609051304913072272e+03,8.140317603102270368e+03,3.723571554208383532e+03,9.446745872497558594e+00,3.059675097465515137e-01,-3.059675097465515137e-01,1.250000000000000000e+02
2.728258388444518459e+03,2.795756338062769828e+03,4.126196497329699923e+03,4.709442506742346268e+03,2.469155863062629578e+03,2.650167127130097469e+03,7.964269719969203834e+03,3.796127033858956565e+03,9.446745872497558594e+00,3.059675097465515137e-01,-3.059675097465515137e-01,1.260000000000000000e+02
2.772598545683551492e+03,2.842298839292146113e+03,4.164875943893366639e+03,4.639112646612275057e+03,2.510382011706777121e+03,2.696425161366217253e+03,7.795919792984868764e+03,3.846161982949774028e+03,9.446745872497558594e+00,3.059675097465515137e-01,-3.059675097465515137e-01,1.270000000000000000e+02
2.753915020879467193e+03,2.814626105452825868e+03,4.131070151358544535e+03,4.653226168471903293e+03,2.502402553969561268e+03,2.676844222254964734e+03,7.777962655142837320e+03,3.781985552146451482e+03,9.446745872497558594e+00,3.059675097465515137e-01,-3.059675097465515137e-01,1.280000000000000000e+02
2.691761063583378018e+03,2.744185534878437466e+03,4.045086335996204070e+03,4.693148665021199122e+03,2.454287720176973380e+03,2.611884656997591264e+03,7.844923318618811209e+03,3.668636470879987428e+03,9.446745872497558594e+00,3.059675097465515137e-01,-3.059675097465515137e-01,1.290000000000000000e+02
2.664185862709945468e+03,2.720914811994938646e+03,3.998543735690769154e+03,4.665831174432253647e+03,2.428396973098491799e+03,2.585298072643265186e+03,7.813525240105924240e+03,3.637447117844311833e+03,9.446745872497558594e+00,3.059675097465515137e-01,-3.059675097465515137e-01,1.300000000000000000e+02
2.700258781755491327e+03,2.767609612281980844e+03,4.026438572640973689e+03,4.572019866839686983e+03,2.453682990270152914e+03,2.628300000638458187e+03,7.635457855497154924e+03,3.704291077757092353e+03,9.446745872497558594e+00,3.059675097465515137e-01,-3.059675097465515137e-01,1.310000000000000000e+02
2.739990974370095500e+03,2.809469554263583632e+03,4.058604269933409341e+03,4.504088489116844357e+03,2.487713273437645512e+03,2.675734059266982513e+03,7.464015102364480299e+03,3.748531667307660882e+03,9.446745872497558594e+00,3.059675097465515137e-01,-3.059675097465515137e-01,1.320000000000000000e+02
2.719015620136250618e+03,2.778650204428768120e+03,4.018652190084344511e+03,4.517531174602203464e+03,2.477498519450860840e+03,2.655289394729221385e+03,7.443024800897816021e+03,3.680970232241470057e+03,9.446745872497558594e+00,3.059675097465515137e-01,-3.059675097465515137e-01,1.330000000000000000e+02
2.658939179675466221e+03,2.708392570155362591e+03,3.930349823855387967e+03,4.554856060539619648e+03,2.431800511347056272e+03,2.587065120885190481e+03,7.509023627362475054e+03,3.567038681690514750e+03,9.446745872497558594e+00,3.059675097465515137e-01,-3.059675097465515137e-01,1.340000000000000000e+02
2.635430360738449053e+03,2.687704267118056123e+03,3.883508220671778872e+03,4.526021572707144514e+03,2.407256782730162740e+03,2.555950029356144114e+03,7.479277912936400753e+03,3.535560160036735397e+03,9.561484336853027344e+00,3.059675097465515137e-01,-2.294756323099136353e-01,1.350000000000000000e+02
2.670994857138883162e+03,2.738688293573456576e+03,3.909849103369442673e+03,4.432444691710780717e+03,2.430573604677939329e+03,2.594710887204901155e+03,7.304057523991396920e+03,3.600805518753274555e+03,9.561484336853027344e+00,3.059675097465515137e-01,-2.294756323099136353e-01,1.360000000000000000e+02
2.704899525731434551e+03,2.784317141754515433e+03,3.940750758737372053e+03,4.363981334172935021e+03,2.462109606210622587e+03,2.638937619266182992e+03,7.134995609187054470e+03,3.643048333060362893e+03,9.561484336853027344e+00,3.059675097465515137e-01,-2.294756323099136353e-01,1.370000000000000000e+02
2.679616218616442893e+03,2.752389246215859202e+03,3.902076319737377162e+03,4.374655585536023864e+03,2.449334424812688667e+03,2.616198231295398728e+03,7.114550332109495685e+03,3.573615570895726705e+03,9.561484336853027344e+00,3.059675097465515137e-01,-2.294756323099136353e-01,1.380000000000000000e+02
2.620142780311609386e+03,2.674679494572404110e+03,3.814983205361210821e+03,4.408481406475560107e+03,2.399177557715051989e+03,2.546234868799424476e+03,7.178014230959526685e+03,3.457059235505826109e+03,9.561484336853027344e+00,3.059675097465515137e-01,-2.294756323099136353e-01,1.390000000000000000e+02
2.598302834513419839e+03,2.644337514631326485e+03,3.766420288616493963e+03,4.376619655605034495e+03,2.370335208809667165e+03,2.513343110959018304e+03,7.143173470739012373e+03,3.422325435984046635e+03,9.561484336853027344e+00,3.059675097465515137e-01,-2.294756323099136353e-01,1.400000000000000000e+02
2.634511618646297393e+03,2.688408796111159972e+03,3.790196863933484110e+03,4.279550493771328547e+03,2.392591241268291924e+03,2.549116369411115556e+03,6.963276261899148267e+03,3.485143405956012884e+03,9.561484336853027344e+00,3.059675097465515137e-01,-2.294756323099136353e-01,1.410000000000000000e+02
2.670315449397095108e+03,2.730624145870247048e+03,3.820385395910799161e+03,4.206564449993442395e+03,2.423736299360410158e+03,2.588409416917769704e+03,6.792191455941303502e+03,3.526262777936076873e+03,9.561484336853027344e+00,3.059675097465515137e-01,-2.294756323099136353e-01,1.420000000000000000e+02
2.647200817474965334e+03,2.696780290352506199e+03,3.781662384497527455e+03,4.212784374876756374e+03,2.407449885907758471e+03,2.559953654065554474e+03,6.771498078709149013e+03,3.456062078775609280e+03,9.561484336853027344e+00,3.059675097465515137e-01,-2.294756323099136353e-01,1.430000000000000000e+02
2.585940361816206860e+03,2.617540452036985698e+03,3.693581273215562760e+03,4.243024629966515931e+03,2.352733394405485342e+03,2.485320468286046889e+03,6.835139627534043029e+03,3.338101789658276175e+03,9.561484336853027344e+00,3.059675097465515137e-01,-2.294756323099136353e-01,1.440000000000000000e+02
2.559227773441392856e+03,2.585919864481701552e+03,3.643993130221820138e+03,4.208306538445878687e+03,2.321711064348261971e+03,2.448728151218486346e+03,6.801595225089437008e+03,3.300895342356804576e+03,9.561484336853027344e+00,3.059675097465515137e-01,-2.294756323099136353e-01,1.450000000000000000e+02
2.592371115060233024e+03,2.628426175835333197e+03,3.667116495002628653e+03,4.109515922660472825e+03,2.342723774550596318e+03,2.480742756004166949e+03,6.624496512074490965e+03,3.360736256594892438e+03,9.561484336853027344e+00,3.059675097465515137e-01,-2.294756323099136353e-01,1.460000000000000000e+02
2.627125220230787818e+03,2.668930356475756525e+03,3.695750650023821436e+03,4.036572461521433070e+03,2.371771491929567674e+03,2.517236047430658800e+03,6.455629060733612278e+03,3.400291522653745687e+03,9.561484336853027344e+00,3.059675097465515137e-01,-2.294756323099136353e-01,1.470000000000000000e+02
2.601371487514832552e+03,2.634911106236270825e+03,3.654913643886800401e+03,4.043939128152878766e+03,2.355147170439188812e+03,2.488938135227517705e+03,6.434783038135712559e+03,3.331414401339452070e+03,9.561484336853027344e+00,3.059675097465515137e-01,-2.294756323099136353e-01,1.480000000000000000e+02
2.535851522292156915e+03,2.557231139376214742e+03,3.566276602307745179e+03,4.075325151077663577e+03,2.303892546520990436e+03,2.416943526569537426e+03,6.497213123240172536e+03,3.216658164083618431e+03,9.561484336853027344e+00,3.059675097465515137e-01,-2.294756323099136353e-01,1.490000000000000000e+02
2.505588604886814210e+03,2.525533960375405513e+03,3.517596795031272450e+03,4.041809735468757481e+03,2.277478688826301550e+03,2.383282236753472716e+03,6.463700076270903082e+03,3.182330173504178219e+03,9.561484336853027344e+00,3.059675097465515137e-01,-2.294756323099136353e-01,1.500000000000000000e+02
2.535326632855286334e+03,2.563715912514850061e+03,3.540391700975704225e+03,3.944527341804721800e+03,2.301363707373171565e+03,2.417709073301365606e+03,6.288019777130784860e+03,3.243686995699435556e+03,9.561484336853027344e+00,3.059675097465515137e-01,-2.294756323099136353e-01,1.510000000000000000e+02
2.565945908206544118e+03,2.598211477792460755e+03,3.566379399533047490e+03,3.872523567088794152e+03,2.331962664331342239e+03,2.455974183136166175e+03,6.120539522325227153e+03,3.283410686397447989e+03,9.561484336853027344e+00,3.059675097465515137e-01,-2.294756323099136353e-01,1.520000000000000000e+02
2.537601444473582887e+03,2.560377126048095306e+03,3.522684826175725902e+03,3.879579916968213183e+03,2.316311288229975617e+03,2.427808040167765284e+03,6.100280570141948374e+03,3.213803308149455006e+03,9.561484336853027344e+00,3.059675097465515137e-01,-2.294756323099136353e-01,1.530000000000000000e+02
2.471911102480839872e+03,2.480716031702368127e+03,3.432971181643424643e+03,3.910349255153073045e+03,2.264491860377946068e+03,2.354663156387027811e+03,6.162770651536991863e+03,3.098796324675011419e+03,9.561484336853027344e+00,3.059675097465515137e-01,-2.294756323099136353e-01,1.540000000000000000e+02
2.440504855050268816e+03,2.447106724678900719e+03,3.384307042692308642e+03,3.877269649729496450e+03,2.235373767823893104e+03,2.321303845405431275e+03,6.129475055313075245e+03,3.065898495511711189e+03,9.561484336853027344e+00,3.059675097465515137e-01,-2.294756323099136353e-01,1.550000000000000000e+02
2.466195703720705751e+03,2.485181628551821632e+03,3.406593290784492183e+03,3.781657882365353544e+03,2.255116961556313072e+03,2.358600003526154069e+03,5.955049921018791792e+03,3.129401068872107317e+03,9.446745872497558594e+00,2.294756323099136353e-01,-1.529837548732757568e-01,1.560000000000000000e+02
2.492328155995420275e+03,2.523273183263373539e+03,3.431604043259581431e+03,3.711830856262829911e+03,2.280894295553281154e+03,2.399946701900370499e+03,5.790275073469976633e+03,3.170104369577542002e+03,9.446745872497558594e+00,2.294756323099136353e-01,-1.529837548732757568e-01,1.570000000000000000e+02
2.460676798611489176e+03,2.490113817114166523e+03,3.387327565722217514e+03,3.720725998092289046e+03,2.260321622866452344e+03,2.373233658235602888e+03,5.773130863439151653e+03,3.100094680253929255e+03,9.446745872497558594e+00,2.294756323099136353e-01,-1.529837548732757568e-01,1.580000000000000000e+02
2.391860544627658783e+03,2.412936195233357466e+03,3.296567006006718657e+03,3.752347834181140115e+03,2.204152728222488804e+03,2.300471213224416715e+03,5.837333719780302090e+03,2.983728411107943430e+03,9.446745872497558594e+00,2.294756323099136353e-01,-1.529837548732757568e-01,1.590000000000000000e+02
2.358577767905326255e+03,2.380454597685868066e+03,3.244776972180769008e+03,3.719196752709049633e+03,2.171379248704637575e+03,2.266190208690146392e+03,5.803883810984183583e+03,2.947622354802676455e+03,9.446745872497558594e+00,2.294756323099136353e-01,-1.529837548732757568e-01,1.600000000000000000e+02
2.386183568767295583e+03,2.419742161996422510e+03,3.263006821783447776e+03,3.623339625653442454e+03,2.187934021628139817e+03,2.299752380287921369e+03,5.628756292060183114e+03,3.005684878274366838e+03,9.446745872497558594e+00,2.294756323099136353e-01,-1.529837548732757568e-01,1.610000000000000000e+02
2.416332152339662571e+03,2.457684692903217183e+03,3.286366875217644520e+03,3.553174831906638701e+03,2.211563520252047965e+03,2.335393000028914685e+03,5.463845421767153312e+03,3.040918581467767581e+03,9.446745872497558594e+00,2.294756323099136353e-01,-1.529837548732757568e-01,1.620000000000000000e+02
2.386766793163645161e+03,2.422589483760781604e+03,3.243513671000537215e+03,3.560470412073037551e+03,2.190490001810949252e+03,2.303930535662033435e+03,5.446876375394542265e+03,2.967749031088162155e+03,9.446745872497558594e+00,2.294756323099136353e-01,-1.529837548732757568e-01,1.630000000000000000e+02
2.318461533326346398e+03,2.344403383954020683e+03,3.154374143657411878e+03,3.588490850901411250e+03,2.134277874500377948e+03,2.228221767878116225e+03,5.511301184507296057e+03,2.850118651174293973e+03,9.446745872497558594e+00,2.294756323099136353e-01,-1.529837548732757568e-01,1.640000000000000000e+02
2.286641354869783754e+03,2.312585704565363358e+03,3.102939530528417890e+03,3.550619747961531175e+03,2.100182797640281024e+03,2.191351711254249494e+03,5.478894479001523905e+03,2.813006839424787813e+03,9.446745872497558594e+00,2.294756323099136353e-01,-1.529837548732757568e-01,1.650000000000000000e+02
2.314875291560328151e+03,2.351172980484290292e+03,3.122201868279823429e+03,3.450092913652728384e+03,2.114859191793787431e+03,2.222306975010153110e+03,5.306101612856326938e+03,2.870075232334860630e+03,9.446745872497558594e+00,2.294756323099136353e-01,-1.529837548732757568e-01,1.660000000000000000e+02
2.341964389816354924e+03,2.385919710448752085e+03,3.148311269144481230e+03,3.375510326034005629e+03,2.138283712961076617e+03,2.256251857632515566e+03,5.143763128632015651e+03,2.904949307354172561e+03,9.446745872497558594e+00,2.294756323099136353e-01,-1.529837548732757568e-01,1.670000000000000000e+02
2.308124152595151827e+03,2.347777659801332447e+03,3.107797822241463564e+03,3.378851360914105499e+03,2.118582448579568791e+03,2.224094410005483041e+03,5.128335009986659315e+03,2.832212249505033924e+03,9.446745872497558594e+00,2.294756323099136353e-01,-1.529837548732757568e-01,1.680000000000000000e+02
2.237983168257313991e+03,2.267509273616245082e+03,3.018985799529258657e+03,3.404467425516210824e+03,2.063108925056372300e+03,2.147984146586614770e+03,5.193549695910592163e+03,2.715789256727221982e+03,9.446745872497558594e+00,2.294756323099136353e-01,-1.529837548732757568e-01,1.690000000000000000e+02
2.205664048678252584e+03,2.232051136409363153e+03,2.967026304223801162e+03,3.366531316090741711e+03,2.028569065470453097e+03,2.110383717690608137e+03,5.162490863592838650e+03,2.680519825013835998e+03,9.446745872497558594e+00,2.294756323099136353e-01,-1.529837548732757568e-01,1.700000000000000000e+02
2.233542829017889744e+03,2.265635363027681706e+03,2.985911488931993517e+03,3.267608556536456490e+03,2.042692636890640188e+03,2.139355999974143288e+03,4.992045694207267843e+03,2.738996176933845163e+03,9.446745872497558594e+00,2.294756323099136353e-01,-1.529837548732757568e-01,1.710000000000000000e+02
2.263329511743230796e+03,2.298808753025739406e+03,3.011153486518976479e+03,3.194910507966079422e+03,2.064958511226834617e+03,2.169522293294864539e+03,4.831879404614103805e+03,2.773602322122188070e+03,9.446745872497558594e+00,2.294756323099136353e-01,-1.529837548732757568e-01,1.720000000000000000e+02
2.235461978042756527e+03,2.265198186144476949e+03,2.969800970821604096e+03,3.199671513894195868e+03,2.042475418961916148e+03,2.133209579229586325e+03,4.816840404124314773e+03,2.699306216328009214e+03,9.446745872497558594e+00,2.294756323099136353e-01,-1.529837548732757568e-01,1.730000000000000000e+02
2.168673932465637336e+03,2.192160065554348876e+03,2.882221945105623490e+03,3.226509234223477961e+03,1.984438459088769378e+03,2.054755337992115074e+03,4.880595428557486230e+03,2.581511057122458169e+03,9.446745872497558594e+00,2.294756323099136353e-01,-1.529837548732757568e-01,1.740000000000000000e+02
2.133816761170692189e+03,2.162062467542833929e+03,2.832923421923887872e+03,3.190402572055692872e+03,1.949910633787942515e+03,2.017029497840210297e+03,4.848202183378188238e+03,2.545498438686992358e+03,9.446745872497558594e+00,2.294756323099136353e-01,-1.529837548732757568e-01,1.750000000000000000e+02
2.156697480282754441e+03,2.197779802400832523e+03,2.851698360595148188e+03,3.094523190603843886e+03,1.965052879274458974e+03,2.047420186203445155e+03,4.678370258390645176e+03,2.603635103433779932e+03,9.446745872497558594e+00,2.294756323099136353e-01,-1.529837548732757568e-01,1.760000000000000000e+02
2.181146747580231931e+03,2.228976921135910288e+03,2.872019668283394822e+03,3.025861091673057672e+03,1.986658784230661695e+03,2.080939286440144315e+03,4.520281210543729685e+03,2.639561072689075445e+03,9.446745872497558594e+00,2.294756323099136353e-01,-1.529837548732757568e-01,1.770000000000000000e+02
2.145858568058766650e+03,2.187280938432466883e+03,2.824465221275471322e+03,3.034626004218588605e+03,1.963260778457261040e+03,2.050338326868490640e+03,4.507311417840399372e+03,2.570035294656393035e+03,9.446745872497558594e+00,2.294756323099136353e-01,-1.529837548732757568e-01,1.780000000000000000e+02
2.071301987074233693e+03,2.102150426247750147e+03,2.733755207351164245e+03,3.064248642501577251e+03,1.906705375001220546e+03,1.978230590025197216e+03,4.573361140783898918e+03,2.459432295107904338e+03,9.446745872497558594e+00,2.294756323099136353e-01,-1.529837548732757568e-01,1.790000000000000000e+02
2.033134737654407218e+03,2.063578822075412063e+03,2.684552869358253702e+03,3.028983967060483337e+03,1.874539066841867225e+03,1.944931581896756143e+03,4.544797862918399005e+03,2.429610437654125235e+03,9.446745872497558594e+00,2.294756323099136353e-01,-1.529837548732757568e-01,1.800000000000000000e+02
2.056566064156360881e+03,2.098301865904615170e+03,2.704804299715129673e+03,2.932144171748390363e+03,1.890285934921480475e+03,1.977276182406332737e+03,4.380002235079382444e+03,2.491464761642473150e+03,9.446745872497558594e+00,2.677215635776519775e-01,-2.677215635776519775e-01,1.810000000000000000e+02
2.081206637432187108e+03,2.130487878209133214e+03,2.727753110636195288e+03,2.861715011334320479e+03,1.912169444483364714e+03,2.011291671351346849e+03,4.226327268611748877e+03,2.530000938711168601e+03,9.446745872497558594e+00,2.677215635776519775e-01,-2.677215635776519775e-01,1.820000000000000000e+02
2.046681054031284475e+03,2.086559949592771318e+03,2.683570386486118423e+03,2.868936636897589779e+03,1.890672819932136008e+03,1.979862842245931006e+03,4.216333304225660868e+03,2.462161937556431894e+03,9.446745872497558594e+00,2.677215635776519775e-01,-2.677215635776519775e-01,1.830000000000000000e+02
1.976734771648360493e+03,1.999883510647024650e+03,2.594550288367810936e+03,2.897556281573728029e+03,1.835047724731965445e+03,1.904895930934149419e+03,4.284562281141763378e+03,2.350084800206009277e+03,9.446745872497558594e+00,2.677215635776519775e-01,-2.677215635776519775e-01,1.840000000000000000e+02
1.944230131833995529e+03,1.965478386661444802e+03,2.544470261737042620e+03,2.862046782659958808e+03,1.800032116348567342e+03,1.867340679866831124e+03,4.257911315484378974e+03,2.315055311943725883e+03,9.446745872497558594e+00,2.677215635776519775e-01,-2.677215635776519775e-01,1.850000000000000000e+02
1.969656085714169876e+03,2.006940478164782689e+03,2.564163612608053427e+03,2.766415533252262776e+03,1.811803955007431341e+03,1.895823504005141331e+03,4.094848824380803308e+03,2.370632696452485106e+03,9.446745872497558594e+00,2.677215635776519775e-01,-2.677215635776519775e-01,1.860000000000000000e+02
1.994672573681441008e+03,2.044110838533242713e+03,2.589070877979169381e+03,2.698506479988993306e+03,1.832344422648322507e+03,1.926476706887976889e+03,3.942985887401788204e+03,2.403720821214261832e+03,9.446745872497558594e+00,2.677215635776519775e-01,-2.677215635776519775e-01,1.870000000000000000e+02
1.963486179667074794e+03,2.005476044030744106e+03,2.547659368655083199e+03,2.707585971324927414e+03,1.810793254023385543e+03,1.890264804453245233e+03,3.934833683088832004e+03,2.330642931566811058e+03,9.446745872497558594e+00,2.677215635776519775e-01,-2.677215635776519775e-01,1.880000000000000000e+02
1.898467641976127652e+03,1.924782620680812670e+03,2.460507252360526763e+03,2.735775889384495258e+03,1.753707392773089850e+03,1.808919043439272173e+03,4.004342715235877222e+03,2.214108188558906477e+03,9.446745872497558594e+00,2.677215635776519775e-01,-2.677215635776519775e-01,1.890000000000000000e+02
1.868599052173160544e+03,1.890284321091144648e+03,2.412598970293583989e+03,2.698581690490424535e+03,1.717566713934605559e+03,1.766471804156131384e+03,3.978655566152815481e+03,2.178069667757165462e+03,9.446745872497558594e+00,2.677215635776519775e-01,-2.677215635776519775e-01,1.900000000000000000e+02
1.895140391993469166e+03,1.923556000062939347e+03,2.435345088797572771e+03,2.601974278731849154e+03,1.730891983100085326e+03,1.793787569129089206e+03,3.817776184604012087e+03,2.236081571136401635e+03,9.446745872497558594e+00,2.677215635776519775e-01,-2.677215635776519775e-01,1.910000000000000000e+02
1.922237318954154034e+03,1.953764478186646102e+03,2.462019945965776515e+03,2.533990439478507142e+03,1.753099399214102959e+03,1.825643309574342311e+03,3.669888779779097604e+03,2.271358094918669394e+03,9.446745872497558594e+00,2.677215635776519775e-01,-2.677215635776519775e-01,1.920000000000000000e+02
1.892735696235295109e+03,1.916071175271249558e+03,2.420026904323359759e+03,2.543576621864939625e+03,1.730200420489875796e+03,1.791443911436705093e+03,3.665640501753722674e+03,2.198619216443526966e+03,9.446745872497558594e+00,2.677215635776519775e-01,-2.677215635776519775e-01,1.930000000000000000e+02
1.826696548628940036e+03,1.838776891337882262e+03,2.331795785871412136e+03,2.573977698282886649e+03,1.670911489413115305e+03,1.713491605187650293e+03,3.737042380404245705e+03,2.082876398791746851e+03,9.446745872497558594e+00,2.677215635776519775e-01,-2.677215635776519775e-01,1.940000000000000000e+02
1.794328417032329526e+03,1.804204444443612374e+03,2.283300971984501757e+03,2.540933862814177701e+03,1.634881128524408723e+03,1.675067345226308134e+03,3.711966065897258886e+03,2.048622349144739928e+03,9.446745872497558594e+00,2.677215635776519775e-01,-2.677215635776519775e-01,1.950000000000000000e+02
1.819023550890778552e+03,1.836622506977641933e+03,2.304701275990957583e+03,2.447499520895488331e+03,1.648981801794448529e+03,1.703963152058788182e+03,3.552412302908978745e+03,2.106696521651301737e+03,9.446745872497558594e+00,2.677215635776519775e-01,-2.677215635776519775e-01,1.960000000000000000e+02
1.844424679623482916e+03,1.868101457948338975e+03,2.329411059308949461e+03,2.379244263556201986e+03,1.670244567584455126e+03,1.734930033661941707e+03,3.406781060156453350e+03,2.140557038012316752e+03,9.446745872497558594e+00,2.677215635776519775e-01,-2.677215635776519775e-01,1.970000000000000000e+02
1.812547647539868194e+03,1.831261959361684603e+03,2.287039686171777703e+03,2.387191197709506469e+03,1.646686593435294981e+03,1.701516444336065433e+03,3.404629711371620942e+03,2.069085723697142839e+03,9.446745872497558594e+00,2.677215635776519775e-01,-2.677215635776519775e-01,1.980000000000000000e+02
1.744815129846518630e+03,1.753502899453110331e+03,2.200237616293123210e+03,2.418278607960396130e+03,1.588991917017722244e+03,1.627400815959893407e+03,3.477954748829892196e+03,1.957798280012971418e+03,9.446745872497558594e+00,2.677215635776519775e-01,-2.677215635776519775e-01,1.990000000000000000e+02
1.712464197816477281e+03,1.719878251443596128e+03,2.152642967440131542e+03,2.388461604222896767e+03,1.554304724776282455e+03,1.592217780609574675e+03,3.455092536095157811e+03,1.926612437530939360e+03,9.446745872497558594e+00,2.677215635776519775e-01,-2.677215635776519775e-01,2.000000000000000000e+02
1.737340793403285261e+03,1.753865739236619447e+03,2.173954068656159052e+03,2.298653579587061358e+03,1.567592589040189978e+03,1.621935828912387478e+03,3.297115020213115713e+03,1.985089947396631487e+03,9.446745872497558594e+00,2.677215635776519775e-01,-2.677215635776519775e-01,2.010000000000000000e+02
1.761500158151284268e+03,1.783771279035790485e+03,2.199887000294334939e+03,2.233743113542591800e+03,1.588595843848954246e+03,1.653897822368885500e+03,3.151504645325159800e+03,2.020921897264920517e+03,9.446745872497558594e+00,2.677215635776519775e-01,-2.677215635776519775e-01,2.020000000000000000e+02
1.727693070145840920e+03,1.743196913215922905e+03,2.160525025679261034e+03,2.244567100376757480e+03,1.567230144540562378e+03,1.622631816572247772e+03,3.149178798953612386e+03,1.954478417003153481e+03,9.446745872497558594e+00,2.677215635776519775e-01,-2.677215635776519775e-01,2.030000000000000000e+02
1.658403928249835189e+03,1.663730571848358522e+03,2.075655702705153999e+03,2.276135803781799950e+03,1.511713437442613213e+03,1.549479713818061555e+03,3.224272540304780705e+03,1.847412610175544614e+03,9.446745872497558594e+00,2.677215635776519775e-01,-2.677215635776519775e-01,2.040000000000000000e+02
1.624173435182849516e+03,1.629888139868691724e+03,2.027239089019177300e+03,2.243591622047311830e+03,1.477785984025744710e+03,1.514292136723503972e+03,3.205465055494367334e+03,1.818092564490966652e+03,9.446745872497558594e+00,2.677215635776519775e-01,-2.677215635776519775e-01,2.050000000000000000e+02
1.645987264582401622e+03,1.661182505628810077e+03,2.046944472277002205e+03,2.151201575474263336e+03,1.492805601337207008e+03,1.546651044194982205e+03,3.052873814461840084e+03,1.879284287530115307e+03,9.446745872497558594e+00,2.677215635776519775e-01,-2.677215635776519775e-01,2.060000000000000000e+02
1.666625652955818168e+03,1.686145731127804993e+03,2.072577054532941020e+03,2.087614618991950920e+03,1.517187018829332374e+03,1.584515635327510154e+03,2.912857617629229026e+03,1.919687244725710570e+03,9.446745872497558594e+00,2.677215635776519775e-01,-2.677215635776519775e-01,2.070000000000000000e+02
1.629970711355987532e+03,1.642929433069851711e+03,2.033836098311268870e+03,2.102695775880544716e+03,1.497814896297620180e+03,1.558502812491264649e+03,2.914622764461292718e+03,1.856521899911845594e+03,9.484992027282714844e+00,3.442134261131286621e-01,-3.059675097465515137e-01,2.080000000000000000e+02
1.558990449699856072e+03,1.565641436629292457e+03,1.950034650688552574e+03,2.137747150741049609e+03,1.441680046659321761e+03,1.486818017462340322e+03,2.991199506895593458e+03,1.750176103380775430e+03,9.484992027282714844e+00,3.442134261131286621e-01,-3.059675097465515137e-01,2.090000000000000000e+02
1.525205424729701463e+03,1.536892969509645354e+03,1.904009514224446320e+03,2.106602245208340264e+03,1.406600405057756234e+03,1.448954417915047543e+03,2.973091551966691895e+03,1.720648093905861060e+03,9.484992027282714844e+00,3.442134261131286621e-01,-3.059675097465515137e-01,2.100000000000000000e+02
1.551036128255604126e+03,1.572874635948380273e+03,1.927063432186234422e+03,2.014346469258676279e+03,1.420429079103517779e+03,1.474664657478234858e+03,2.823326858703610014e+03,1.780173833636192740e+03,9.484992027282714844e+00,3.442134261131286621e-01,-3.059675097465515137e-01,2.110000000000000000e+02
1.578592894602711112e+03,1.600345552595240179e+03,1.954788152614319642e+03,1.949465154497180265e+03,1.442179751616835347e+03,1.503424537143598172e+03,2.688020263060059733e+03,1.815692435932504850e+03,9.484992027282714844e+00,3.442134261131286621e-01,-3.059675097465515137e-01,2.120000000000000000e+02
1.548457994403790508e+03,1.557671761064490056e+03,1.916240095293545437e+03,1.961745327032596379e+03,1.420115169034114160e+03,1.470373692633914743e+03,2.693661965824649542e+03,1.746810629443192965e+03,9.484992027282714844e+00,3.442134261131286621e-01,-3.059675097465515137e-01,2.130000000000000000e+02
1.481245128982691767e+03,1.480201026004124287e+03,1.832425337006258360e+03,1.995041685897411298e+03,1.364231747030136376e+03,1.397315676756096309e+03,2.772475947737901151e+03,1.638104103783798564e+03,9.484992027282714844e+00,3.442134261131286621e-01,-3.059675097465515137e-01,2.140000000000000000e+02
1.449431398607387109e+03,1.451920284279875659e+03,1.786750051250039633e+03,1.965952017724731377e+03,1.331251396367075813e+03,1.362005173727156489e+03,2.756533288749664734e+03,1.608798871618055955e+03,9.484992027282714844e+00,3.442134261131286621e-01,-3.059675097465515137e-01,2.150000000000000000e+02
1.477414801676291972e+03,1.490091063522574132e+03,1.809444091651002964e+03,1.878643935967376819e+03,1.345116722109695502e+03,1.390052297984000006e+03,2.609606587651134305e+03,1.667235100013034526e+03,9.484992027282714844e+00,3.442134261131286621e-01,-3.059675097465515137e-01,2.160000000000000000e+02
1.507707113968395333e+03,1.521312767265367484e+03,1.836644468562883958e+03,1.818541789389571932e+03,1.364695321374592368e+03,1.419652172146533985e+03,2.476929005715244330e+03,1.700395481512024844e+03,9.484992027282714844e+00,3.442134261131286621e-01,-3.059675097465515137e-01,2.170000000000000000e+02
1.480513569400399774e+03,1.481932230037214140e+03,1.799323231313457882e+03,1.834414891347956200e+03,1.341643009749815747e+03,1.387108602928844221e+03,2.484300526192273992e+03,1.631212629269760555e+03,9.484992027282714844e+00,3.442134261131286621e-01,-3.059675097465515137e-01,2.180000000000000000e+02
1.416075566839585917e+03,1.405251705876144797e+03,1.718147406060119010e+03,1.871015060814675962e+03,1.286840262856736899e+03,1.314904063567633330e+03,2.564142710018054458e+03,1.524884890718991755e+03,9.484992027282714844e+00,3.442134261131286621e-01,-3.059675097465515137e-01,2.190000000000000000e+02
1.385143509473496124e+03,1.375862708456299970e+03,1.674469740115645664e+03,1.844980135900333153e+03,1.254913423677058518e+03,1.281204685548002772e+03,2.549171637704010664e+03,1.498629906920869644e+03,9.484992027282714844e+00,3.442134261131286621e-01,-3.059675097465515137e-01,2.200000000000000000e+02
1.409858165789151144e+03,1.413576262477951786e+03,1.698383871097404608e+03,1.759705641447041216e+03,1.269323869838126711e+03,1.312278447389704525e+03,2.403917121013661472e+03,1.560323503359558572e+03,9.484992027282714844e+00,3.442134261131286621e-01,-3.059675097465515137e-01,2.210000000000000000e+02
1.433882265218197745e+03,1.446222797388629488e+03,1.727194688180018829e+03,1.700600890594236944e+03,1.290006399946741567e+03,1.345436744937223466e+03,2.273726756142772956e+03,1.597319059702374489e+03,9.484992027282714844e+00,3.442134261131286621e-01,-3.059675097465515137e-01,2.220000000000000000e+02
1.402089196735544647e+03,1.408963512641200396e+03,1.691397525373978169e+03,1.716711940981111411e+03,1.267675542655513027e+03,1.314740097294997895e+03,2.283541201708763310e+03,1.530859516509730156e+03,9.484992027282714844e+00,3.442134261131286621e-01,-3.059675097465515137e-01,2.230000000000000000e+02
1.337249927281550981e+03,1.333340358202298830e+03,1.610637653596089876e+03,1.752842357708117788e+03,1.211472571890793233e+03,1.242188131422739389e+03,2.365266645421210342e+03,1.424496059836254972e+03,9.484992027282714844e+00,3.442134261131286621e-01,-3.059675097465515137e-01,2.240000000000000000e+02
1.307721187074018871e+03,1.303235749849695139e+03,1.566925507126883531e+03,1.726592159455112323e+03,1.177164324817018496e+03,1.207643766480349313e+03,2.352192254080190196e+03,1.397104288169506390e+03,9.484992027282714844e+00,3.442134261131286621e-01,-3.059675097465515137e-01,2.250000000000000000e+02
1.332696191831627857e+03,1.338558668541248608e+03,1.590956860467262459e+03,1.642613246965943517e+03,1.190947071825390140e+03,1.238320673783091706e+03,2.209075441815332852e+03,1.459438884551661431e+03,9.484992027282714844e+00,3.442134261131286621e-01,-3.059675097465515137e-01,2.260000000000000000e+02
1.355999519330979638e+03,1.367115945072408067e+03,1.619116448983491409e+03,1.585230999028148744e+03,1.213634721763561174e+03,1.271345158382521504e+03,2.080494794159385037e+03,1.499517580888537395e+03,9.484992027282714844e+00,3.442134261131286621e-01,-3.059675097465515137e-01,2.270000000000000000e+02
1.323483367009863287e+03,1.324237195701264227e+03,1.582014257294643585e+03,1.600799976846469690e+03,1.195450634605406776e+03,1.241609693907370001e+03,2.091364808413713945e+03,1.437783109690385345e+03,9.484992027282714844e+00,3.442134261131286621e-01,-3.059675097465515137e-01,2.280000000000000000e+02
1.257402738307253458e+03,1.243340308636891223e+03,1.501334752564416704e+03,1.633823084155061679e+03,1.144972560118045294e+03,1.171936810972773856e+03,2.174927200618412371e+03,1.336873497651713251e+03,9.484992027282714844e+00,3.442134261131286621e-01,-3.059675097465515137e-01,2.290000000000000000e+02
1.226019299271772979e+03,1.211263378919092247e+03,1.459445240412630483e+03,1.604416725362230864e+03,1.115911711171590468e+03,1.140120056299630505e+03,2.165099534501318431e+03,1.313412032534642549e+03,9.484992027282714844e+00,3.442134261131286621e-01,-3.059675097465515137e-01,2.300000000000000000e+02
1.250048297949082553e+03,1.248338619532430130e+03,1.484756411947765628e+03,1.518988078068429786e+03,1.131312109517401041e+03,1.170265476983661756e+03,2.025597504129829304e+03,1.375416596456426760e+03,9.484992027282714844e+00,3.442134261131286621e-01,-3.059675097465515137e-01,2.310000000000000000e+02
1.274165947447630060e+03,1.279636061312092352e+03,1.512953907955942213e+03,1.461806613945800109e+03,1.151455799394359929e+03,1.199924430116952408e+03,1.900107342700054687e+03,1.411630536611157368e+03,9.484992027282714844e+00,3.442134261131286621e-01,-3.059675097465515137e-01,2.320000000000000000e+02
1.243166187948206243e+03,1.239160259120012142e+03,1.476863021852965176e+03,1.479305355144122132e+03,1.129120916604711510e+03,1.167370401332601432e+03,1.913915433276364638e+03,1.346526557133764072e+03,9.484992027282714844e+00,3.442134261131286621e-01,-3.059675097465515137e-01,2.330000000000000000e+02
1.178055890175296554e+03,1.161866565775728304e+03,1.398856424143545610e+03,1.516032999703083988e+03,1.074830196478274047e+03,1.097184147250884507e+03,2.000571972303997427e+03,1.244886922577233236e+03,9.484992027282714844e+00,3.442134261131286621e-01,-3.059675097465515137e-01,2.340000000000000000e+02
1.146766886301607883e+03,1.134206526887961445e+03,1.358715148999005578e+03,1.490680245800740067e+03,1.042803566147913898e+03,1.066545456401875526e+03,1.993476201912082615e+03,1.222134541541451199e+03,9.484992027282714844e+00,3.442134261131286621e-01,-3.059675097465515137e-01,2.350000000000000000e+02
1.170081513397319668e+03,1.173411835295628407e+03,1.383596090173229641e+03,1.408084904868764170e+03,1.057492024265020063e+03,1.099251945339096437e+03,1.856249428399079079e+03,1.285645917449078752e+03,9.484992027282714844e+00,3.442134261131286621e-01,-3.059675097465515137e-01,2.360000000000000000e+02
1.193281971850147784e+03,1.204945494381490789e+03,1.411967074795254575e+03,1.352702446066004541e+03,1.080506909164275385e+03,1.132440994701013096e+03,1.733420301036892852e+03,1.324871813898374967e+03,9.484992027282714844e+00,3.442134261131286621e-01,-3.059675097465515137e-01,2.370000000000000000e+02
1.162704242889607485e+03,1.167236966198833670e+03,1.379293594572496659e+03,1.371868209116844355e+03,1.062944848764085691e+03,1.101822506922734647e+03,1.750508402776948969e+03,1.262926112335891958e+03,9.484992027282714844e+00,3.442134261131286621e-01,-3.059675097465515137e-01,2.380000000000000000e+02
1.100623707346781885e+03,1.095631312174579762e+03,1.306550807669555070e+03,1.410435222028230783e+03,1.012299244675821228e+03,1.029788783221756148e+03,1.840066437869773836e+03,1.161795811224589670e+03,9.523238182067871094e+00,3.442134261131286621e-01,-2.294756323099136353e-01,2.390000000000000000e+02
1.074332580792536646e+03,1.071233874629619095e+03,1.270624340836205192e+03,1.387465666373013846e+03,9.821126641293385546e+02,9.954524519695974050e+02,1.835072756038496664e+03,1.137145699218925529e+03,9.523238182067871094e+00,3.442134261131286621e-01,-2.294756323099136353e-01,2.400000000000000000e+02
1.102227785015250447e+03,1.108907580929439064e+03,1.298071783754769967e+03,1.308101062373018067e+03,9.975263195235029343e+02,1.026154474039416073e+03,1.700237965205847104e+03,1.199212301512063277e+03,9.523238182067871094e+00,3.442134261131286621e-01,-2.294756323099136353e-01,2.410000000000000000e+02
1.127329206932742636e+03,1.138178363022729627e+03,1.327830936147291595e+03,1.255754722923975351e+03,1.019493915420193844e+03,1.059277298470224196e+03,1.580594294887971046e+03,1.238198836312731146e+03,9.523238182067871094e+00,3.442134261131286621e-01,-2.294756323099136353e-01,2.420000000000000000e+02
1.095877467090911523e+03,1.100652011126163416e+03,1.294438645805008491e+03,1.276406803997207135e+03,9.988785561037930165e+02,1.028802068911256356e+03,1.600071773659982682e+03,1.175733475615696989e+03,9.523238182067871094e+00,3.442134261131286621e-01,-2.294756323099136353e-01,2.430000000000000000e+02
1.032537190753671894e+03,1.029859149452044221e+03,1.218495710926762513e+03,1.315410396490786297e+03,9.457762546916865176e+02,9.574503286163089797e+02,1.689817338065649892e+03,1.073882421532394346e+03,9.523238182067871094e+00,3.442134261131286621e-01,-2.294756323099136353e-01,2.440000000000000000e+02
1.007049881411576280e+03,1.005276899724161922e+03,1.179503237353706027e+03,1.293258720175399503e+03,9.160983117150508406e+02,9.252529497525138140e+02,1.684054273401109640e+03,1.049571455675214565e+03,9.523238182067871094e+00,3.442134261131286621e-01,-2.294756323099136353e-01,2.450000000000000000e+02
1.037605015099052252e+03,1.043562406158008343e+03,1.206551148677377569e+03,1.215059059331139906e+03,9.333382873099253629e+02,9.580040973007680805e+02,1.549621942521958772e+03,1.112251282872156480e+03,9.523238182067871094e+00,3.442134261131286621e-01,-2.294756323099136353e-01,2.460000000000000000e+02
1.065015046245453050e+03,1.075248432038886676e+03,1.237143851377115425e+03,1.163116435261124934e+03,9.554875203542960662e+02,9.918301108364021275e+02,1.431526479701960852e+03,1.150808280979681513e+03,9.523238182067871094e+00,3.442134261131286621e-01,-2.294756323099136353e-01,2.470000000000000000e+02
1.034182455598702290e+03,1.039270953356452083e+03,1.203310472384807326e+03,1.183043539029438762e+03,9.339125948351402258e+02,9.628768479886248315e+02,1.452353347541578842e+03,1.088693520525729582e+03,9.523238182067871094e+00,3.442134261131286621e-01,-2.294756323099136353e-01,2.480000000000000000e+02
9.699818538600247848e+02,9.664953442230344081e+02,1.126965153426371216e+03,1.220618761541806634e+03,8.813066774854323739e+02,8.957923120483865205e+02,1.543320314263874934e+03,9.907957984551821937e+02,9.523238182067871094e+00,3.442134261131286621e-01,-2.294756323099136353e-01,2.490000000000000000e+02
9.423268062983070195e+02,9.375815963424065558e+02,1.090346210223510752e+03,1.196976620796810494e+03,8.536671399740216657e+02,8.686270113640021009e+02,1.539704008931448698e+03,9.729875926164086195e+02,9.523238182067871094e+00,3.442134261131286621e-01,-2.294756323099136353e-01,2.500000000000000000e+02
9.694726556903751771e+02,9.724258595000655987e+02,1.121167218856607178e+03,1.118304164458806554e+03,8.724201596130305916e+02,9.047377618279160743e+02,1.408055995447524765e+03,1.041003725237983417e+03,9.523238182067871094e+00,3.442134261131286621e-01,-2.294756323099136353e-01,2.510000000000000000e+02
9.936939505848040426e+02,1.002647742282846593e+03,1.153333926954704111e+03,1.067894563430355447e+03,8.952519840219001708e+02,9.408526973923208061e+02,1.292060262584011070e+03,1.082492169124809152e+03,9.523238182067871094e+00,3.442134261131286621e-01,-2.294756323099136353e-01,2.520000000000000000e+02
9.620762370780466881e+02,9.658179397617232098e+02,1.119123515430543193e+03,1.091000759656486480e+03,8.750337167619472893e+02,9.139568191861444575e+02,1.314032710410549043e+03,1.022384427593799046e+03,9.523238182067871094e+00,3.442134261131286621e-01,-2.294756323099136353e-01,2.530000000000000000e+02
8.995840573838704586e+02,8.923949905331601258e+02,1.043540332840131668e+03,1.132014832065322480e+03,8.245649999669622048e+02,8.474393345467397012e+02,1.406090887986860253e+03,9.259107758516229296e+02,9.523238182067871094e+00,3.442134261131286621e-01,-2.294756323099136353e-01,2.540000000000000000e+02
8.739025137708304101e+02,8.642972368956261562e+02,1.009081099127987727e+03,1.111085585408400220e+03,7.985419402848820027e+02,8.187685203926457689e+02,1.404215428245233852e+03,9.078207369186620781e+02,9.523238182067871094e+00,3.442134261131286621e-01,-2.294756323099136353e-01,2.550000000000000000e+02
9.022965839167463855e+02,9.009787256957224599e+02,1.041440369290377930e+03,1.034027753710371144e+03,8.183716167981265244e+02,8.528096421072023077e+02,1.275194355347177407e+03,9.742052408924355404e+02,9.523238182067871094e+00,3.442134261131286621e-01,-2.294756323099136353e-01,2.560000000000000000e+02
9.290584766186475463e+02,9.316514294768521722e+02,1.075115576860370311e+03,9.839915515374568713e+02,8.427057816947835818e+02,8.871564903723865427e+02,1.162784731408375592e+03,1.014485604304376466e+03,9.523238182067871094e+00,3.442134261131286621e-01,-2.294756323099136353e-01,2.570000000000000000e+02
9.026551412533026451e+02,8.942222594383329124e+02,1.044532038697889220e+03,1.006846253039059775e+03,8.238436188660361950e+02,8.581812391449329880e+02,1.188962805681021564e+03,9.541923743799998192e+02,9.523238182067871094e+00,3.442134261131286621e-01,-2.294756323099136353e-01,2.580000000000000000e+02
8.452615707615041174e+02,8.229014927599009752e+02,9.734523372309386104e+02,1.048418146191828782e+03,7.729207953012637518e+02,7.893022841233059808e+02,1.285304531720143132e+03,8.579958465285071725e+02,9.523238182067871094e+00,3.442134261131286621e-01,-2.294756323099136353e-01,2.590000000000000000e+02
8.207615345134690870e+02,8.007587130771134980e+02,9.407551221288740635e+02,1.029686698243633145e+03,7.444676110743303070e+02,7.585668700780706786e+02,1.287743774099173606e+03,8.406487953619325708e+02,9.484992027282714844e+00,2.677215635776519775e-01,-2.677215635776519775e-01,2.600000000000000000e+02
8.470956884505867492e+02,8.436336208567317954e+02,9.714736054986651652e+02,9.558402728797009331e+02,7.613360541639740404e+02,7.904337034237914850e+02,1.162976547482558090e+03,9.082207087423403209e+02,9.484992027282714844e+00,2.677215635776519775e-01,-2.677215635776519775e-01,2.610000000000000000e+02
8.724338504583320173e+02,8.778962467957853733e+02,1.002711558656059424e+03,9.088074996909836045e+02,7.834490179046315461e+02,8.223089388978260104e+02,1.053760798884841279e+03,9.489977406832604174e+02,9.484992027282714844e+00,2.677215635776519775e-01,-2.677215635776519775e-01,2.620000000000000000e+02
8.465593221474118764e+02,8.424454657156320536e+02,9.705843169400313855e+02,9.335801943531860161e+02,7.636798272083906340e+02,7.918429141175402037e+02,1.081300377347606627e+03,8.876713737636473525e+02,9.484992027282714844e+00,2.677215635776519775e-01,-2.677215635776519775e-01,2.630000000000000000e+02
7.901093891015607369e+02,7.728236591687964392e+02,8.986490651646545302e+02,9.756347166869418288e+02,7.131121905825239082e+02,7.231218596796479687e+02,1.178157901400752962e+03,7.894485943390545799e+02,9.484992027282714844e+00,2.677215635776519775e-01,-2.677215635776519775e-01,2.640000000000000000e+02
7.668261636938641459e+02,7.518923707851045037e+02,8.660488130505054869e+02,9.564870290973194642e+02,6.852310624470628682e+02,6.930317018302266661e+02,1.181941215986846146e+03,7.696098210515538085e+02,9.484992027282714844e+00,2.677215635776519775e-01,-2.677215635776519775e-01,2.650000000000000000e+02
7.952604043632309185e+02,7.956429818697797600e+02,8.987369601531427179e+02,8.828605312226809474e+02,7.019994835784709721e+02,7.256564502674027608e+02,1.059654702704903684e+03,8.345743060752947713e+02,9.484992027282714844e+00,2.677215635776519775e-01,-2.677215635776519775e-01,2.660000000000000000e+02
8.211166695832907862e+02,8.306620645532602794e+02,9.333747625685427920e+02,8.379049428552734753e+02,7.243919993895560765e+02,7.600749534872320510e+02,9.531629078650857991e+02,8.744248032815366969e+02,9.484992027282714844e+00,2.677215635776519775e-01,-2.677215635776519775e-01,2.670000000000000000e+02
7.914603321405502356e+02,7.945845646333273180e+02,9.042331525425961445e+02,8.661256048611357983e+02,7.067902044981983636e+02,7.345523926040332299e+02,9.829458218021572975e+02,8.154935837072262075e+02,9.484992027282714844e+00,2.677215635776519775e-01,-2.677215635776519775e-01,2.680000000000000000e+02
7.298420420984111843e+02,7.219928500620299019e+02,8.337533836777402030e+02,9.114072324291228142e+02,6.593849210618973302e+02,6.708262213223697472e+02,1.081314372090802863e+03,7.211154367152394116e+02,9.484992027282714844e+00,2.677215635776519775e-01,-2.677215635776519775e-01,2.690000000000000000e+02
7.055341873148117884e+02,6.966649187918501411e+02,8.017836273533448548e+02,8.941117702862538863e+02,6.338893216938304249e+02,6.434201310548905894e+02,1.086084015610880670e+03,7.034226514132915327e+02,9.484992027282714844e+00,2.677215635776519775e-01,-2.677215635776519775e-01,2.700000000000000000e+02
7.372031464405408769e+02,7.354817377761992248e+02,8.355783142260006571e+02,8.205837163353207870e+02,6.529229831697666668e+02,6.767787518738787185e+02,9.651783226692587050e+02,7.695575878603231104e+02,9.484992027282714844e+00,2.677215635776519775e-01,-2.677215635776519775e-01,2.710000000000000000e+02
7.662735683518785663e+02,7.655055115823997767e+02,8.719053933181185130e+02,7.741877926552879217e+02,6.786597173382633628e+02,7.114431305328162125e+02,8.611396024092937296e+02,8.125401722234691988e+02,9.484992027282714844e+00,2.677215635776519775e-01,-2.677215635776519775e-01,2.720000000000000000e+02
7.384679655697400449e+02,7.264891760989739851e+02,8.438601049606040760e+02,8.006284134630022891e+02,6.635799084570990090e+02,6.861355112096334778e+02,8.935342158604762517e+02,7.583124826765033504e+02,9.484992027282714844e+00,2.677215635776519775e-01,-2.677215635776519775e-01,2.730000000000000000e+02
6.787491015198575042e+02,6.552139977274327975e+02,7.731213179845944978e+02,8.456004130126384553e+02,6.156221639622981456e+02,6.231188376911231899e+02,9.932757794945155183e+02,6.676710438361478737e+02,9.484992027282714844e+00,2.677215635776519775e-01,-2.677215635776519775e-01,2.740000000000000000e+02
6.551806650256621651e+02,6.341727239854026266e+02,7.400750999179817882e+02,8.300441685950154351e+02,5.884044032874753611e+02,5.982290776634290523e+02,9.985150614275080443e+02,6.528864478923933348e+02,9.484992027282714844e+00,2.677215635776519775e-01,-2.677215635776519775e-01,2.750000000000000000e+02
6.845058561529040162e+02,6.773504349032227765e+02,7.726392865188845462e+02,7.588732673975518992e+02,6.074672709265651065e+02,6.356577373769559927e+02,8.786012640609442315e+02,7.222572758424867061e+02,9.484992027282714844e+00,2.677215635776519775e-01,-2.677215635776519775e-01,2.760000000000000000e+02
7.109510221811942756e+02,7.114089955108611321e+02,8.077801386675746471e+02,7.137102883758507232e+02,6.337150042463545105e+02,6.732447097405492968e+02,7.762288509408463142e+02,7.670288571353175939e+02,9.484992027282714844e+00,2.677215635776519775e-01,-2.677215635776519775e-01,2.770000000000000000e+02
6.846551995791724039e+02,6.767564001520422607e+02,7.795658005123150360e+02,7.399214319333223102e+02,6.173912957977754559e+02,6.479593601170745387e+02,8.100817761301550490e+02,7.113650470264947216e+02,9.484992027282714844e+00,2.677215635776519775e-01,-2.677215635776519775e-01,2.780000000000000000e+02
6.298570242599562334e+02,6.087340961023437558e+02,7.111012715130709694e+02,7.839746289455251826e+02,5.685359404274422559e+02,5.831387590617250680e+02,9.110176446261793899e+02,6.182255142423382495e+02,9.484992027282714844e+00,2.677215635776519775e-01,-2.677215635776519775e-01,2.790000000000000000e+02
6.107694075435429113e+02,5.882233963968919852e+02,6.820253585216560168e+02,7.677260845128457731e+02,5.434642525015588035e+02,5.554190864975498698e+02,9.175138277284204378e+02,6.023424222610083234e+02,9.484992027282714844e+00,2.677215635776519775e-01,-2.677215635776519775e-01,2.800000000000000000e+02
6.434506898422223458e+02,6.300692862032101402e+02,7.176494068904921733e+02,6.966839511665421014e+02,5.654270565781807818e+02,5.878311672225117945e+02,7.982143838536831026e+02,6.706786984564041632e+02,9.484992027282714844e+00,2.677215635776519775e-01,-2.677215635776519775e-01,2.810000000000000000e+02
6.736903744132923748e+02,6.624399506462850695e+02,7.545165289684264280e+02,6.522368531220108707e+02,5.920397786390003603e+02,6.185396869084997888e+02,6.952623268765128159e+02,7.129985916323785204e+02,9.484992027282714844e+00,2.677215635776519775e-01,-2.677215635776519775e-01,2.820000000000000000e+02
6.510079580262645322e+02,6.259722693620133214e+02,7.290208638127551239e+02,6.786356580250139814e+02,5.750428068421333592e+02,5.880215981015080615e+02,7.286148902895802166e+02,6.557718459707539296e+02,9.484992027282714844e+00,2.677215635776519775e-01,-2.677215635776519775e-01,2.830000000000000000e+02
5.980826874439844687e+02,5.561228699422790669e+02,6.647828624174089782e+02,7.217112114912088146e+02,5.270857114232985623e+02,5.223163123549402371e+02,8.307732126268710999e+02,5.645113335199257563e+02,9.484992027282714844e+00,2.677215635776519775e-01,-2.677215635776519775e-01,2.840000000000000000e+02
5.798669947708276595e+02,5.344235032024153043e+02,6.387609737765124009e+02,7.041814361916767666e+02,5.029579398246023629e+02,4.970647772251777496e+02,8.400609921545074030e+02,5.524274304607388331e+02,9.446745872497558594e+00,3.059675097465515137e-01,-3.059675097465515137e-01,2.850000000000000000e+02
6.137330527406702458e+02,5.762901782604076288e+02,6.747205984330776118e+02,6.327098539014186827e+02,5.236793487970535352e+02,5.329684118214154296e+02,7.238857345934557088e+02,6.229637671930722718e+02,9.446745872497558594e+00,3.059675097465515137e-01,-3.059675097465515137e-01,2.860000000000000000e+02
6.446259930487285601e+02,6.109227938758340315e+02,7.106416758056911931e+02,5.887371726816054434e+02,5.482560585236569750e+02,5.669574256301584683e+02,6.235491573989274912e+02,6.644357592111573467e+02,9.446745872497558594e+00,3.059675097465515137e-01,-3.059675097465515137e-01,2.870000000000000000e+02
6.206836035847663879e+02,5.799071784211646445e+02,6.839397196855643415e+02,6.161955187696621579e+02,5.301535157650014298e+02,5.387982299098530348e+02,6.581312580480007455e+02,6.042640391373970488e+02,9.446745872497558594e+00,3.059675097465515137e-01,-3.059675097465515137e-01,2.880000000000000000e+02
5.651984841596568003e+02,5.168487743876739842e+02,6.174934581532670563e+02,6.612963667000258283e+02,4.808250384940256481e+02,4.740248377090574650e+02,7.592298382948829385e+02,5.094223432543203671e+02,9.446745872497558594e+00,3.059675097465515137e-01,-3.059675097465515137e-01,2.890000000000000000e+02
5.449607642035989556e+02,4.994365533808031614e+02,5.884278391732786986e+02,6.471021554366161581e+02,4.541940821581883938e+02,4.487009865061027085e+02,7.659768669499826501e+02,4.941104267793889449e+02,9.446745872497558594e+00,3.059675097465515137e-01,-3.059675097465515137e-01,2.900000000000000000e+02
5.783422751526304637e+02,5.421081641275959555e+02,6.220289384575517033e+02,5.796228116764214064e+02,4.731450009334930655e+02,4.843498095891409321e+02,6.482662084004587086e+02,5.625866336663311813e+02,9.446745872497558594e+00,3.059675097465515137e-01,-3.059675097465515137e-01,2.910000000000000000e+02
6.097484800438178354e+02,5.762072223626291816e+02,6.566882358536422544e+02,5.390672492530065938e+02,4.982303347635352111e+02,5.182007380191389530e+02,5.487802946345327655e+02,6.042057337744590768e+02,9.446745872497558594e+00,3.059675097465515137e-01,-3.059675097465515137e-01,2.920000000000000000e+02
5.860344552822243713e+02,5.437286268798980018e+02,6.292042819054840948e+02,5.682510745543768280e+02,4.821752331146271899e+02,4.901527911126067920e+02,5.857240119944035541e+02,5.467603142553653015e+02,9.446745872497558594e+00,3.059675097465515137e-01,-3.059675097465515137e-01,2.930000000000000000e+02
5.299674035338503018e+02,4.771251595240228198e+02,5.627446030610444723e+02,6.126696569003543118e+02,4.352899880978475267e+02,4.259980449403810780e+02,6.894671934049329138e+02,4.556122840423704474e+02,9.446745872497558594e+00,3.059675097465515137e-01,-3.059675097465515137e-01,2.940000000000000000e+02
5.088392075848023524e+02,4.563315321013069479e+02,5.348370795647570048e+02,5.958814340560384153e+02,4.108217054983433627e+02,4.019322644874009711e+02,6.987445366571519116e+02,4.427560213751548872e+02,9.446745872497558594e+00,3.059675097465515137e-01,-3.059675097465515137e-01,2.950000000000000000e+02
5.407884150443533144e+02,4.996258803545861156e+02,5.696734850643297250e+02,5.261174748361590900e+02,4.307276483663263207e+02,4.398356374272225366e+02,5.831210565497276548e+02,5.126801468932299031e+02,9.446745872497558594e+00,3.059675097465515137e-01,-3.059675097465515137e-01,2.960000000000000000e+02
5.687861962900278741e+02,5.368181726696129772e+02,6.044652449970089947e+02,4.859041566428859369e+02,4.553767751789055183e+02,4.773775817870046012e+02,4.849360813849598344e+02,5.567822639063542738e+02,9.446745872497558594e+00,3.059675097465515137e-01,-3.059675097465515137e-01,2.970000000000000000e+02
5.395645586059035850e+02,5.046034538444509963e+02,5.763571486056935100e+02,5.181720987174267066e+02,4.389066442610965169e+02,4.536766063267605205e+02,5.227689386357378680e+02,5.031145493256644841e+02,9.446745872497558594e+00,3.059675097465515137e-01,-3.059675097465515137e-01,2.980000000000000000e+02
4.782113180963715422e+02,4.348087587412846915e+02,5.092054340216091077e+02,5.665968699454460875e+02,3.927052201566402800e+02,3.925948479865910485e+02,6.277163175983987458e+02,4.152812880608817068e+02,9.446745872497558594e+00,3.059675097465515137e-01,-3.059675097465515137e-01,2.990000000000000000e+02
4.545255399455490988e+02,4.114606299874758406e+02,4.807434546559015871e+02,5.532340001981792739e+02,3.693353940388042247e+02,3.690401750955898024e+02,6.389196008439794241e+02,4.043361450761512970e+02,9.446745872497558594e+00,3.059675097465515137e-01,-3.059675097465515137e-01,3.000000000000000000e+02
4.879551082762845908e+02,4.542512424699016265e+02,5.161178985805527191e+02,4.858788945036576479e+02,3.899470108806635835e+02,4.048325426658375363e+02,5.262725693249667529e+02,4.748451769193416112e+02,9.446745872497558594e+00,3.059675097465515137e-01,-3.059675097465515137e-01,3.010000000000000000e+02
5.219683416417319677e+02,4.912726505533864838e+02,5.539271819557980052e+02,4.465074869413801935e+02,4.153269826582545647e+02,4.384123446431985940e+02,4.321047638658747019e+02,5.178548796323520946e+02,9.446745872497558594e+00,3.059675097465515137e-01,-3.059675097465515137e-01,3.020000000000000000e+02
5.015558368538404466e+02,4.596486781702915323e+02,5.307902318748674588e+02,4.772874298676651961e+02,4.000598606198982452e+02,4.109489108096349810e+02,4.738466634254218661e+02,4.617048045980154711e+02,9.446745872497558594e+00,3.059675097465515137e-01,-3.059675097465515137e-01,3.030000000000000000e+02
4.470333905493862403e+02,3.925731879495069734e+02,4.682766451634233817e+02,5.226566222562069015e+02,3.550614725691011699e+02,3.488237895846577885e+02,5.812578138769749785e+02,3.718621122388940421e+02,9.446745872497558594e+00,3.059675097465515137e-01,-3.059675097465515137e-01,3.040000000000000000e+02
4.247116166368614358e+02,3.719240602338250028e+02,4.429425208754473715e+02,5.072259179249522276e+02,3.325700603939949360e+02,3.272331614482609439e+02,5.936792414216797624e+02,3.607119714011314500e+02,9.446745872497558594e+00,3.059675097465515137e-01,-3.059675097465515137e-01,3.050000000000000000e+02
4.555722894963619183e+02,4.147251353688916424e+02,4.804847007690441387e+02,4.403785768158122664e+02,3.544273020281543722e+02,3.660796869611003785e+02,4.819365419062924047e+02,4.325494018249009969e+02,9.446745872497558594e+00,3.059675097465515137e-01,-3.059675097465515137e-01,3.060000000000000000e+02
4.861438461202415056e+02,4.508123394916510733e+02,5.195143054696709441e+02,4.028821233762137126e+02,3.821273499525887019e+02,4.027344204534820165e+02,3.880767646677231824e+02,4.781703511517043808e+02,9.446745872497558594e+00,3.059675097465515137e-01,-3.059675097465515137e-01,3.070000000000000000e+02
4.618487419962038985e+02,4.203271818511129823e+02,4.957386457483262348e+02,4.352324539291294059e+02,3.697699798160392675e+02,3.783212556149592274e+02,4.287752513239611289e+02,4.255678714095374744e+02,9.446745872497558594e+00,3.059675097465515137e-01,-3.059675097465515137e-01,3.080000000000000000e+02
4.033160099103952234e+02,3.558828461323282681e+02,4.313023650098657527e+02,4.822998515491381113e+02,3.272048438562851516e+02,3.179879329966970545e+02,5.345978619338930002e+02,3.383826968671128270e+02,9.446745872497558594e+00,3.059675097465515137e-01,-3.059675097465515137e-01,3.090000000000000000e+02
3.795199966770414903e+02,3.372244703982432839e+02,4.052013718700836762e+02,4.694914869235253718e+02,3.064827052718319464e+02,2.959728279701121210e+02,5.467009405410208274e+02,3.277072491497601732e+02,9.446745872497558594e+00,3.059675097465515137e-01,-3.059675097465515137e-01,3.100000000000000000e+02
4.127430010627685988e+02,3.810575118558263057e+02,4.442540870198135963e+02,4.050267239072381926e+02,3.298387104730427382e+02,3.340607826141567784e+02,4.365941844775297795e+02,3.993444230370660080e+02,9.446745872497558594e+00,3.059675097465515137e-01,-3.059675097465515137e-01,3.110000000000000000e+02
4.471385772562935017e+02,4.175523673847455939e+02,4.852721517107420368e+02,3.686811614317484782e+02,3.583079799511469901e+02,3.714996054379698762e+02,3.455613985103409505e+02,4.457562262678620755e+02,9.523238182067871094e+00,1.912296712398529053e-01,-2.294756323099136353e-01,3.120000000000000000e+02
4.261646118313183251e+02,3.866367650387437607e+02,4.623214683213554963e+02,4.024137680851745245e+02,3.453751242485341209e+02,3.477586307587553165e+02,3.893669972649731790e+02,3.942296714511976461e+02,9.523238182067871094e+00,1.912296712398529053e-01,-2.294756323099136353e-01,3.130000000000000000e+02
3.710983327023532183e+02,3.211400791818632570e+02,3.986510060511500342e+02,4.521114701403566869e+02,3.019928601969113515e+02,2.858598483808527817e+02,4.981866248683290905e+02,3.078578521505951358e+02,9.523238182067871094e+00,1.912296712398529053e-01,-2.294756323099136353e-01,3.140000000000000000e+02
3.505493403088257764e+02,3.012167677479665144e+02,3.744370087020106439e+02,4.411080731311594718e+02,2.816776179868829786e+02,2.613510360907785071e+02,5.129312172577410820e+02,2.987669409305235604e+02,9.523238182067871094e+00,1.912296712398529053e-01,-2.294756323099136353e-01,3.150000000000000000e+02
3.845257748342773993e+02,3.435918055917791207e+02,4.146260220967087662e+02,3.759474508676648838e+02,3.057372669961623615e+02,2.983561085188703146e+02,4.044632126340511604e+02,3.723621848120019422e+02,9.523238182067871094e+00,1.912296712398529053e-01,-2.294756323099136353e-01,3.160000000000000000e+02
4.175193669604777824e+02,3.789810262835671892e+02,4.537592844178325322e+02,3.382162853839072341e+02,3.336141745578461268e+02,3.365831401000614278e+02,3.130652526570920600e+02,4.193200768105634779e+02,9.523238182067871094e+00,1.912296712398529053e-01,-2.294756323099136353e-01,3.170000000000000000e+02
3.967623083969847357e+02,3.478532242427572783e+02,4.273613340298797993e+02,3.716910153749013261e+02,3.200887839774113672e+02,3.160763179884452256e+02,3.542437319947857759e+02,3.678788507044482685e+02,9.523238182067871094e+00,1.912296712398529053e-01,-2.294756323099136353e-01,3.180000000000000000e+02
3.450043356925380067e+02,2.821345303298221552e+02,3.619104281856671150e+02,4.211219115422973118e+02,2.783350324238199391e+02,2.610699827653515968e+02,4.595490430664431187e+02,2.837310756265687814e+02,9.523238182067871094e+00,1.912296712398529053e-01,-2.294756323099136353e-01,3.190000000000000000e+02
3.271292679756479629e+02,2.616518548474086856e+02,3.378955001891335996e+02,4.091229397132883605e+02,2.608602322799415560e+02,2.453557180320967746e+02,4.718492983048054157e+02,2.779434829795900441e+02,9.523238182067871094e+00,1.912296712398529053e-01,-2.294756323099136353e-01,3.200000000000000000e+02
3.590156283241340134e+02,3.052189084070159879e+02,3.782838919893001730e+02,3.441527323494301527e+02,2.865309427018473798e+02,2.886213794100622181e+02,3.629333165839343565e+02,3.526036864255220280e+02,9.523238182067871094e+00,1.912296712398529053e-01,-2.294756323099136353e-01,3.210000000000000000e+02
3.858139288219317677e+02,3.443896194300723437e+02,4.172778852921910584e+02,3.087373464308511757e+02,3.149006595624377951e+02,3.287180735817782988e+02,2.733488438530912390e+02,3.987158010619568813e+02,9.523238182067871094e+00,1.912296712398529053e-01,-2.294756323099136353e-01,3.220000000000000000e+02
3.588909097558716894e+02,3.167131686245375022e+02,3.916161916627170285e+02,3.448701291471625154e+02,3.016729494192477432e+02,3.072720363739936147e+02,3.189076126890649903e+02,3.472482972019097360e+02,9.523238182067871094e+00,1.912296712398529053e-01,-2.294756323099136353e-01,3.230000000000000000e+02
3.040701351988209353e+02,2.519836403560693725e+02,3.278612526363285724e+02,3.962222775013869978e+02,2.589062063357378065e+02,2.493949353069001518e+02,4.302221259297584766e+02,2.636042364186178020e+02,9.523238182067871094e+00,1.912296712398529053e-01,-2.294756323099136353e-01,3.240000000000000000e+02
2.869053837500941881e+02,2.315572248400349054e+02,3.059401247605565004e+02,3.861944569864172081e+02,2.387966800346075615e+02,2.286271867049727007e+02,4.475365713135834085e+02,2.569423016052751336e+02,9.523238182067871094e+00,1.912296712398529053e-01,-2.294756323099136353e-01,3.250000000000000000e+02
3.230366868733253796e+02,2.753307626583373349e+02,3.494058591894645360e+02,3.232264137011261482e+02,2.629194475357289775e+02,2.661657597270095721e+02,3.410916782225103816e+02,3.301886273113232164e+02,9.523238182067871094e+00,1.912296712398529053e-01,-2.294756323099136353e-01,3.260000000000000000e+02
3.563459487987893226e+02,3.141647215579796466e+02,3.927770007152648759e+02,2.890617328923690366e+02,2.922549393788794987e+02,3.021330280420661438e+02,2.524389183595849317e+02,3.758976558943868440e+02,9.523238182067871094e+00,1.912296712398529053e-01,-2.294756323099136353e-01,3.270000000000000000e+02
3.348698266126084491e+02,2.873342933867388638e+02,3.710746753064886434e+02,3.262734387817545212e+02,2.799812871383510355e+02,2.783787712399607699e+02,2.982677362637186889e+02,3.238735196327797894e+02,9.523238182067871094e+00,1.912296712398529053e-01,-2.294756323099136353e-01,3.280000000000000000e+02
2.814256866451542010e+02,2.274427502577818814e+02,3.089475747156648140e+02,3.792758406335342443e+02,2.363055772731531761e+02,2.194542578365289955e+02,4.085975009492103709e+02,2.383005975764899631e+02,9.523238182067871094e+00,1.912296712398529053e-01,-2.294756323099136353e-01,3.290000000000000000e+02
2.626885802814795170e+02,2.134418373700791562e+02,2.864302443473716266e+02,3.705986380484391702e+02,2.151434831366095750e+02,1.992992193172867701e+02,4.244615029776177835e+02,2.296381300767861831e+02,9.523238182067871094e+00,1.912296712398529053e-01,-2.294756323099136353e-01,3.300000000000000000e+02
2.981338205317515531e+02,2.597961441516708874e+02,3.283102217090345221e+02,3.080645160842104815e+02,2.391947121620760299e+02,2.384927308442347567e+02,3.188265464229843928e+02,3.017347087621819810e+02,9.523238182067871094e+00,1.912296712398529053e-01,-2.294756323099136353e-01,3.310000000000000000e+02
3.329397752077711630e+02,2.972225944888414233e+02,3.702725881731457775e+02,2.742287806676322361e+02,2.677888085516824503e+02,2.750129443180048838e+02,2.336408678637235425e+02,3.462862636676945840e+02,9.523238182067871094e+00,1.912296712398529053e-01,-2.294756323099136353e-01,3.320000000000000000e+02
3.130897572722606128e+02,2.693000050481277867e+02,3.487898656061079237e+02,3.116395941432783729e+02,2.538151955758148688e+02,2.505943592104777053e+02,2.823857537658259389e+02,2.936219609554063936e+02,9.523238182067871094e+00,1.912296712398529053e-01,-2.294756323099136353e-01,3.330000000000000000e+02
2.600981678698299220e+02,2.095380153525184141e+02,2.892661667927932285e+02,3.635470869862474501e+02,2.099346472232755332e+02,1.922561710162844975e+02,3.929165413103110041e+02,2.098716578185994877e+02,9.523238182067871094e+00,1.912296712398529053e-01,-2.294756323099136353e-01,3.340000000000000000e+02
2.413972920115338638e+02,1.943825042841526738e+02,2.699353625013791316e+02,3.528705138641744270e+02,1.907128203527390724e+02,1.746535475747514283e+02,4.076147093735053204e+02,2.049517648462715442e+02,9.523238182067871094e+00,1.912296712398529053e-01,-2.294756323099136353e-01,3.350000000000000000e+02
2.767668316446870449e+02,2.385292985093365132e+02,3.128665424953214824e+02,2.889468996329014772e+02,2.164741090530151268e+02,2.162776693480482209e+02,3.010522451917277067e+02,2.801614314380676660e+02,9.523238182067871094e+00,1.912296712398529053e-01,-2.294756323099136353e-01,3.360000000000000000e+02
3.110427986817812780e+02,2.752743724402680527e+02,3.535594698632048676e+02,2.539117808969676844e+02,2.456935571681678994e+02,2.541645129735406954e+02,2.146788754342051107e+02,3.267343613784432819e+02,9.523238182067871094e+00,1.912296712398529053e-01,-2.294756323099136353e-01,3.370000000000000000e+02
2.911755300422883010e+02,2.481192815328249708e+02,3.302101842609554296e+02,2.887279795032955008e+02,2.331234251821733778e+02,2.311240051928252797e+02,2.621417468260915484e+02,2.761753365174954524e+02,9.523238182067871094e+00,1.912296712398529053e-01,-2.294756323099136353e-01,3.380000000000000000e+02
2.398517613588192035e+02,1.886332917651088792e+02,2.688063940463543986e+02,3.370944421283129486e+02,1.918973782501270762e+02,1.739807279838423710e+02,3.723815640654793242e+02,1.942607150527292106e+02,9.523238182067871094e+00,1.912296712398529053e-01,-2.294756323099136353e-01,3.390000000000000000e+02
2.234068905236781575e+02,1.736104677546099992e+02,2.474543245833046967e+02,3.239441653029643930e+02,1.745888703183372854e+02,1.560178917281446047e+02,3.882485365202883258e+02,1.901297711363222334e+02,9.523238182067871094e+00,1.912296712398529053e-01,-2.294756323099136353e-01,3.400000000000000000e+02
2.595633719725665287e+02,2.193090161735672154e+02,2.895302203662504326e+02,2.595037563791047432e+02,2.006162925490280031e+02,1.965835843119566562e+02,2.836443155390661559e+02,2.661622923572103900e+02,9.523238182067871094e+00,1.912296712398529053e-01,-2.294756323099136353e-01,3.410000000000000000e+02
2.929153091197440517e+02,2.582179829308079206e+02,3.319900977838406106e+02,2.254201264642615570e+02,2.296614405044674641e+02,2.349767440202995203e+02,1.997088301203475567e+02,3.145324453640787397e+02,9.523238182067871094e+00,1.912296712398529053e-01,-2.294756323099136353e-01,3.420000000000000000e+02
2.714993334606406279e+02,2.317809946367924567e+02,3.122258099967657472e+02,2.619072525302326540e+02,2.171482562037417665e+02,2.135776059388226713e+02,2.495634003895538626e+02,2.656088122013206885e+02,9.484992027282714844e+00,3.442134261131286621e-01,-3.442134261131286621e-01,3.430000000000000000e+02
2.186302936796928407e+02,1.714293200586980674e+02,2.540696433943012380e+02,3.118444945398659911e+02,1.755622292264451971e+02,1.567993576286316966e+02,3.615494829652307089e+02,1.842334986693022074e+02,9.484992027282714844e+00,3.442134261131286621e-01,-3.442134261131286621e-01,3.440000000000000000e+02
2.008654325488532777e+02,1.549487142154393950e+02,2.342844419434186420e+02,2.995200265128805768e+02,1.573553563849927741e+02,1.382170589473826112e+02,3.781831418279107311e+02,1.804319418707891600e+02,9.484992027282714844e+00,3.442134261131286621e-01,-3.442134261131286621e-01,3.450000000000000000e+02
2.359071717926635756e+02,1.983432412402398768e+02,2.761330333328442066e+02,2.349679254711518297e+02,1.829533553239962202e+02,1.801720859415727318e+02,2.736200669827085221e+02,2.573635214600799372e+02,9.484992027282714844e+00,3.442134261131286621e-01,-3.442134261131286621e-01,3.460000000000000000e+02
2.677699483051619609e+02,2.336435010877903551e+02,3.175557522005183273e+02,1.996607766804372659e+02,2.129261993503096164e+02,2.227294576037456864e+02,1.893855382013134658e+02,3.069595068986600381e+02,9.484992027282714844e+00,3.442134261131286621e-01,-3.442134261131286621e-01,3.470000000000000000e+02
2.444970696343225427e+02,2.039142121962577221e+02,2.973794404913205653e+02,2.341659945658684592e+02,2.023740520784922410e+02,2.056670041341494652e+02,2.386821320454255329e+02,2.596196935559710255e+02,9.484992027282714844e+00,3.442134261131286621e-01,-3.442134261131286621e-01,3.480000000000000000e+02
1.907219770342708216e+02,1.432136991634761216e+02,2.393425784188875696e+02,2.834003138475745800e+02,1.622823086137286737e+02,1.517464778674693662e+02,3.500916185119203874e+02,1.802399127600365318e+02,9.484992027282714844e+00,3.442134261131286621e-01,-3.442134261131286621e-01,3.490000000000000000e+02
1.733531519598327577e+02,1.299064696884815930e+02,2.185358073216702905e+02,2.737374307138015865e+02,1.439624602334806696e+02,1.356424046424072003e+02,3.665721097790883505e+02,1.777733718113013310e+02,9.484992027282714844e+00,3.442134261131286621e-01,-3.442134261131286621e-01,3.500000000000000000e+02
2.081521949521411443e+02,1.779621056028991006e+02,2.580073705269751372e+02,2.144662595241534291e+02,1.688462778945831815e+02,1.802889367226453032e+02,2.624289473505996284e+02,2.543185059429742978e+02,9.484992027282714844e+00,3.442134261131286621e-01,-3.442134261131286621e-01,3.510000000000000000e+02
2.379311278976383619e+02,2.171297990967213991e+02,2.974834746392880334e+02,1.846080238127615303e+02,1.994785414669095189e+02,2.244598035262824851e+02,1.789518232262125821e+02,3.020845663169166073e+02,9.484992027282714844e+00,3.442134261131286621e-01,-3.442134261131286621e-01,3.520000000000000000e+02
2.125902479126816615e+02,1.901222119554440724e+02,2.763946673471727991e+02,2.238095568623321014e+02,1.907046665531670442e+02,2.076320509877841687e+02,2.290214740917217568e+02,2.519463904938820633e+02,9.484992027282714844e+00,3.442134261131286621e-01,-3.442134261131286621e-01,3.530000000000000000e+02
1.590665445327467751e+02,1.321953845260577509e+02,2.177359181289721164e+02,2.770706633215086185e+02,1.513492468777258182e+02,1.539085088196443394e+02,3.411706293135794112e+02,1.686530112197579001e+02,9.484992027282714844e+00,3.442134261131286621e-01,-3.442134261131286621e-01,3.540000000000000000e+02
1.443791827679524431e+02,1.221999074288833071e+02,1.975791074394437601e+02,2.696874367798445746e+02,1.321827131584068411e+02,1.376314814714787644e+02,3.587935951838808251e+02,1.616914444284630008e+02,9.484992027282714844e+00,3.442134261131286621e-01,-3.442134261131286621e-01,3.550000000000000000e+02
1.837575995198058081e+02,1.730204369437851710e+02,2.404805466586476541e+02,2.101371740449540084e+02,1.556795149425743148e+02,1.792508257448862423e+02,2.565901674083288526e+02,2.345199589018302504e+02,9.484992027282714844e+00,3.442134261131286621e-01,-3.442134261131286621e-01,3.560000000000000000e+02
2.202918993464118103e+02,2.138158851960615721e+02,2.842889854431123240e+02,1.788868485157945543e+02,1.838341760487892316e+02,2.169417395948185003e+02,1.753045207741160993e+02,2.797157184123789193e+02,9.484992027282714844e+00,3.442134261131286621e-01,-3.442134261131286621e-01,3.570000000000000000e+02
2.029005785348126665e+02,1.883218281164663495e+02,2.651925044714735122e+02,2.172365153554637800e+02,1.704623894828619086e+02,1.929771113936221809e+02,2.266179089775323519e+02,2.276408610268990742e+02,9.484992027282714844e+00,3.442134261131286621e-01,-3.442134261131286621e-01,3.580000000000000000e+02
1.550489623341927654e+02,1.318251412798781530e+02,2.066033344270981615e+02,2.697238384791708086e+02,1.268650915557664121e+02,1.342990476369304815e+02,3.386078745197737589e+02,1.437514839259529253e+02,9.484992027282714844e+00,3.442134261131286621e-01,-3.442134261131286621e-01,3.590000000000000000e+02
1.409654049853415927e+02,1.208608293728684657e+02,1.872505654873748426e+02,2.607072446221645805e+02,1.078719417001557304e+02,1.158519745471930946e+02,3.554338952467369381e+02,1.390123315464370535e+02,9.484992027282714844e+00,3.442134261131286621e-01,-3.442134261131286621e-01,3.600000000000000000e+02
1.771980618373272591e+02,1.674320897307261475e+02,2.318016779179597506e+02,1.992826724714250304e+02,1.355876250388391782e+02,1.576706243223234196e+02,2.528298952341137920e+02,2.162746802474284777e+02,9.484992027282714844e+00,3.442134261131286621e-01,-3.442134261131286621e-01,3.610000000000000000e+02
2.108873536453756969e+02,2.038749483235296793e+02,2.765235107200205675e+02,1.669465179453836754e+02,1.675384245688619558e+02,1.973412644848940545e+02,1.714174771568941651e+02,2.653771633589276462e+02,9.484992027282714844e+00,3.442134261131286621e-01,-3.442134261131286621e-01,3.620000000000000000e+02
1.932825837824711925e+02,1.771865564624022227e+02,2.578859371082435246e+02,2.049067620428613736e+02,1.552991022262576735e+02,1.758274041343538556e+02,2.228647116599022411e+02,2.150529380693769781e+02,9.484992027282714844e+00,3.442134261131286621e-01,-3.442134261131286621e-01,3.630000000000000000e+02
1.468157725772034610e+02,1.222272264934508712e+02,2.003192281761002960e+02,2.571622813903741189e+02,1.119130223239335464e+02,1.186004655502911191e+02,3.344421892094396753e+02,1.313811340321481111e+02,9.408499717712402344e+00,2.294756323099136353e-01,-3.442134261131286621e-01,3.640000000000000000e+02
1.341684007644580561e+02,1.139208746710282867e+02,1.815912339637361583e+02,2.480198413693433395e+02,9.342517553521611262e+01,1.000792363619912066e+02,3.502211816817580257e+02,1.257991010357727646e+02,9.408499717712402344e+00,2.294756323099136353e-01,-3.442134261131286621e-01,3.650000000000000000e+02
1.722349807393693482e+02,1.637729703548102407e+02,2.251161330470567918e+02,1.865136810677140602e+02,1.208039454410609324e+02,1.406549907464068383e+02,2.466990695694548776e+02,2.007517203960524057e+02,9.408499717712402344e+00,2.294756323099136353e-01,-3.442134261131286621e-01,3.660000000000000000e+02
2.084914220633072546e+02,2.022638134323424310e+02,2.683045888938504504e+02,1.533264109398878645e+02,1.516229651793255471e+02,1.789533151663272292e+02,1.652679004232923035e+02,2.474900609161704779e+02,9.408499717712402344e+00,2.294756323099136353e-01,-3.442134261131286621e-01,3.670000000000000000e+02
1.924116076640420943e+02,1.733780924328457331e+02,2.495991661290681805e+02,1.886109604551820667e+02,1.400839222089780378e+02,1.574516871270461706e+02,2.165023500574752688e+02,1.980982328352110926e+02,9.408499717712402344e+00,2.294756323099136353e-01,-3.442134261131286621e-01,3.680000000000000000e+02
1.450456080220756121e+02,1.129269171519117663e+02,1.932484321669908240e+02,2.366759334444359411e+02,1.003906951479584677e+02,1.019646440800352138e+02,3.277431143157591578e+02,1.192285184120191843e+02,9.408499717712402344e+00,2.294756323099136353e-01,-3.442134261131286621e-01,3.690000000000000000e+02
1.307947274489633855e+02,1.007142644750638283e+02,1.751575372641600552e+02,2.242088575980378664e+02,8.584002527601114707e+01,8.519087970829423284e+01,3.441968218898691703e+02,1.184316580426457222e+02,9.408499717712402344e+00,2.294756323099136353e-01,-3.442134261131286621e-01,3.700000000000000000e+02
1.684434762527962448e+02,1.502480587336103781e+02,2.176450732561061159e+02,1.626258562391813030e+02,1.146986591151799075e+02,1.262363972111706971e+02,2.424343805185199017e+02,1.952844781083986163e+02,9.408499717712402344e+00,2.294756323099136353e-01,-3.442134261131286621e-01,3.710000000000000000e+02
2.040160600129238446e+02,1.895003322999255033e+02,2.584218082195948227e+02,1.322225805135531118e+02,1.457322662832011702e+02,1.648909373325950583e+02,1.621262127482914366e+02,2.427819837597271544e+02,9.408499717712402344e+00,2.294756323099136353e-01,-3.442134261131286621e-01,3.720000000000000000e+02
1.850125474866799777e+02,1.610648993091817829e+02,2.367144242181675509e+02,1.707128218208817998e+02,1.352341215179912979e+02,1.448161015542136738e+02,2.126760823681834154e+02,1.948498674588336144e+02,9.408499717712402344e+00,2.294756323099136353e-01,-3.442134261131286621e-01,3.730000000000000000e+02
1.339774123020324623e+02,1.018011530110379681e+02,1.779100600648816908e+02,2.210877062788058538e+02,9.613189952486573020e+01,9.087477322747145081e+01,3.221843858940264909e+02,1.165560767407878302e+02,9.408499717712402344e+00,2.294756323099136353e-01,-3.442134261131286621e-01,3.740000000000000000e+02
1.177320995564732584e+02,9.056085884889034787e+01,1.593648708443288342e+02,2.103672607672560844e+02,7.962154680028470466e+01,7.528163848476833664e+01,3.367948335425026016e+02,1.147666418533262913e+02,9.408499717712402344e+00,2.294756323099136353e-01,-3.442134261131286621e-01,3.750000000000000000e+02
1.542061392529794830e+02,1.383100769546508673e+02,2.034710942141828127e+02,1.499885536526271608e+02,1.055932406658102991e+02,1.190678248077965691e+02,2.334999937754764687e+02,1.919287888533144724e+02,9.408499717712402344e+00,2.294756323099136353e-01,-3.442134261131286621e-01,3.760000000000000000e+02
1.872405076043287409e+02,1.737057013529774849e+02,2.455454750115604838e+02,1.200579911622480722e+02,1.358906868023768766e+02,1.630550854810717283e+02,1.525649685628013685e+02,2.421830859709880315e+02,9.408499717712402344e+00,2.294756323099136353e-01,-3.442134261131286621e-01,3.770000000000000000e+02
1.649390858379119891e+02,1.423828495725610992e+02,2.226874589750514133e+02,1.594418684610136552e+02,1.266001878519964521e+02,1.487012559054346639e+02,2.041611785030836472e+02,1.963991467988598743e+02,9.408499717712402344e+00,2.294756323099136353e-01,-3.442134261131286621e-01,3.780000000000000000e+02
1.120350381199095864e+02,8.195890264224726707e+01,1.615859443990339059e+02,2.124752065743523417e+02,8.868712490117468406e+01,9.863381243825278943e+01,3.158520694026083220e+02,1.182052051035207114e+02,9.408499717712402344e+00,2.294756323099136353e-01,-3.442134261131286621e-01,3.790000000000000000e+02
9.547687003540340811e+01,7.082620267673337366e+01,1.421147102949908003e+02,2.055315856004308444e+02,7.320378787924710196e+01,8.509790744850761257e+01,3.323872145330824424e+02,1.167449069502181374e+02,9.408499717712402344e+00,2.294756323099136353e-01,-3.442134261131286621e-01,3.800000000000000000e+02
1.316951839576649945e+02,1.216244357384057366e+02,1.861433496805766481e+02,1.486395336376808700e+02,1.000517921541904798e+02,1.287687554347285186e+02,2.303691135973494966e+02,1.945074222745170118e+02,9.408499717712402344e+00,2.294756323099136353e-01,-3.442134261131286621e-01,3.810000000000000000e+02
1.641886396917179809e+02,1.640216336279409006e+02,2.270870686619600747e+02,1.221822603681503097e+02,1.294539377502514981e+02,1.689253777947378694e+02,1.507551064205181319e+02,2.424581196678336710e+02,9.408499717712402344e+00,2.294756323099136353e-01,-3.442134261131286621e-01,3.820000000000000000e+02
1.422551175693224650e+02,1.405562892746020225e+02,2.035917634241050109e+02,1.655126248609158210e+02,1.178308452659475734e+02,1.483696775163043640e+02,2.025888947905768873e+02,1.919056171742340666e+02,9.408499717712402344e+00,2.294756323099136353e-01,-3.442134261131286621e-01,3.830000000000000000e+02
9.050972664375149179e+01,8.404242345274542458e+01,1.447693337495657033e+02,2.216003652530853287e+02,7.848374909816629952e+01,9.312434545147698373e+01,3.145657305854692822e+02,1.100636959277762799e+02,9.408499717712402344e+00,2.294756323099136353e-01,-3.442134261131286621e-01,3.840000000000000000e+02
7.589289188844850287e+01,7.224046983698644908e+01,1.293114140816178406e+02,2.143288720138298231e+02,6.319303264758491423e+01,7.657875471730949357e+01,3.312352471454942133e+02,1.064188432525406824e+02,9.408499717712402344e+00,2.294756323099136353e-01,-3.442134261131286621e-01,3.850000000000000000e+02
1.159173700649189414e+02,1.198219121398360585e+02,1.760245950482640183e+02,1.539129165838166955e+02,8.974627353891992243e+01,1.169091205140794045e+02,2.291490635036316235e+02,1.809295073779139784e+02,9.408499717712402344e+00,2.294756323099136353e-01,-3.442134261131286621e-01,3.860000000000000000e+02
1.550875149886269355e+02,1.585421067594434135e+02,2.191760146749802516e+02,1.234068933955422835e+02,1.183757149232842494e+02,1.526382998334520380e+02,1.488487957408360671e+02,2.261690685608336935e+02,9.408499717712402344e+00,2.294756323099136353e-01,-3.442134261131286621e-01,3.870000000000000000e+02
1.409347206659367657e+02,1.330060564151790459e+02,2.000050372546829749e+02,1.641048059534732602e+02,1.074673456983146025e+02,1.287257276810632902e+02,2.004467826952459291e+02,1.771603038676184951e+02,9.408499717712402344e+00,2.294756323099136353e-01,-3.442134261131286621e-01,3.880000000000000000e+02
9.537667878740467131e+01,7.771677848559920676e+01,1.465098594545415835e+02,2.184685870586690726e+02,7.011146574695885647e+01,7.241664742385910358e+01,3.117499197573342826e+02,9.986708209803327918e+01,9.446745872497558594e+00,3.059675097465515137e-01,-3.059675097465515137e-01,3.890000000000000000e+02
8.368478313392552081e+01,6.808359041030780645e+01,1.336880724487127736e+02,2.099369825474277604e+02,5.548286646243650466e+01,5.516794168138585519e+01,3.285975423398922430e+02,9.885847997746168403e+01,9.446745872497558594e+00,3.059675097465515137e-01,-3.059675097465515137e-01,3.900000000000000000e+02
1.237916184300556779e+02,1.154520660915732151e+02,1.807470998257267638e+02,1.486863694751809817e+02,8.201827981843962334e+01,9.489849764492828399e+01,2.280354716817964800e+02,1.735359074188163504e+02,9.446745872497558594e+00,3.059675097465515137e-01,-3.059675097465515137e-01,3.910000000000000000e+02
1.611372056857435382e+02,1.521398366266512312e+02,2.249001607592945220e+02,1.168696168383321492e+02,1.122884772625111509e+02,1.321634841351478826e+02,1.495547720712784212e+02,2.191361409799210378e+02,9.446745872497558594e+00,3.059675097465515137e-01,-3.059675097465515137e-01,3.920000000000000000e+02
1.444986776619334705e+02,1.254003133847218123e+02,2.066659452502935892e+02,1.547270879502320895e+02,1.034616053563950118e+02,1.117467726649774704e+02,2.017699267651769333e+02,1.703439327343730838e+02,9.446745872497558594e+00,3.059675097465515137e-01,-3.059675097465515137e-01,3.930000000000000000e+02
9.739426176917913835e+01,7.015023866857518442e+01,1.511662942811235553e+02,2.060435921966854949e+02,6.600526964940945618e+01,5.822297430309117772e+01,3.122203551813727245e+02,9.126968174163630465e+01,9.446745872497558594e+00,3.059675097465515137e-01,-3.059675097465515137e-01,3.940000000000000000e+02
8.467747256386792287e+01,6.146604961225239094e+01,1.344905439787034993e+02,1.974622150525829056e+02,5.016810142704343889e+01,4.240103203048784053e+01,3.277590630028571468e+02,8.801752349683374632e+01,9.446745872497558594e+00,3.059675097465515137e-01,-3.059675097465515137e-01,3.950000000000000000e+02
1.212484446861053584e+02,1.115768230791945825e+02,1.796180318575570709e+02,1.398084186779597076e+02,7.687678057156881550e+01,8.392012680930201896e+01,2.263076990547269816e+02,1.627992641800738056e+02,9.446745872497558594e+00,3.059675097465515137e-01,-3.059675097465515137e-01,3.960000000000000000e+02
