F3,F4,C3,C4,P3,P4,Cz,Pz,Accel_x,Accel_y,Accel_z,Sample
1.818989403545856476e-12,4.092726157978177071e-12,8.185452315956354141e-12,1.364242052659392357e-12,9.094947017729282379e-13,-4.092726157978177071e-12,6.457412382587790489e-11,2.273736754432320595e-12,9.523238182067871094e+00,7.649187743663787842e-02,-3.824593424797058105e-01,0.000000000000000000e+00
-6.629950099235129528e+02,-4.594504421139681654e+02,-3.733805246245638045e+02,-4.299922942032262654e+02,-2.714010753398260931e+02,-6.288617357265920873e+02,-6.845854449316384489e+02,-5.440011807950093043e+02,9.523238182067871094e+00,7.649187743663787842e-02,-3.824593424797058105e-01,1.000000000000000000e+00
-8.475671241273448686e+02,-5.947481539340260497e+02,-4.678350460848864714e+02,-3.658665130081312782e+02,-3.725622611262419923e+02,-8.310792043238584483e+02,-1.396680042556145509e+03,-6.580178584683455938e+02,9.523238182067871094e+00,7.649187743663787842e-02,-3.824593424797058105e-01,2.000000000000000000e+00
-6.814053384720891700e+02,-4.889174990449489542e+02,-3.564928530294787379e+02,-3.308615937022927938e+02,-3.371001073308320883e+02,-7.217149003766517126e+02,-2.313416690546600876e+03,-4.948898198408053304e+02,9.523238182067871094e+00,7.649187743663787842e-02,-3.824593424797058105e-01,3.000000000000000000e+00
-5.822691264891741412e+02,-4.303346143936294084e+02,-2.934261308477775856e+02,-9.192087204521621970e+02,-3.182079856004411340e+02,-6.775984893645238571e+02,-3.328701995828198960e+03,-4.580646533210931466e+02,9.523238182067871094e+00,7.649187743663787842e-02,-3.824593424797058105e-01,4.000000000000000000e+00
-6.179699222917029147e+02,-4.677358136785778697e+02,-3.240258157476937413e+02,-1.669814236552447255e+03,-3.508132022492154647e+02,-7.599876142748946677e+02,-4.081314429568192281e+03,-5.678605345155172017e+02,9.523238182067871094e+00,7.649187743663787842e-02,-3.824593424797058105e-01,5.000000000000000000e+00
-5.652756488533855190e+02,-4.317881278780050707e+02,-2.887955345819113973e+02,-1.793189111493382825e+03,-3.377393869004035878e+02,-7.573391533120914119e+02,-4.452729033327456818e+03,-5.465035062824993020e+02,9.523238182067871094e+00,7.649187743663787842e-02,-3.824593424797058105e-01,6.000000000000000000e+00
-3.661143506558960325e+02,-2.636136679516575896e+02,-1.171613138353832255e+02,-1.386640124805922596e+03,-2.276411766271810393e+02,-6.036664229028619957e+02,-4.746695827221919899e+03,-3.277564878253106144e+02,9.523238182067871094e+00,7.649187743663787842e-02,-3.824593424797058105e-01,7.000000000000000000e+00
-1.727269303149801090e+02,-8.275376436235205801e+01,8.311682679116165673e+01,-1.147856535088130613e+03,-8.742098373940530109e+01,-4.419188732874808920e+02,-5.221216498099805904e+03,-1.227137251636361270e+02,9.523238182067871094e+00,7.649187743663787842e-02,-3.824593424797058105e-01,8.000000000000000000e+00
-6.789842860944918357e+01,1.713668511880268852e+01,2.034631019308822033e+02,-1.355904419347994008e+03,3.466495695387038722e+00,-3.684837425980090302e+02,-5.777125630775090940e+03,-6.835502944870472675e+01,9.523238182067871094e+00,7.649187743663787842e-02,-3.824593424797058105e-01,9.000000000000000000e+00
1.882971881983394269e+00,6.637665524120643568e+01,2.595436441284025477e+02,-1.700920450505131384e+03,4.450271820208672580e+01,-3.405606597782216340e+02,-6.194860017725843136e+03,-7.541409077935736605e+01,9.523238182067871094e+00,7.649187743663787842e-02,-3.824593424797058105e-01,1.000000000000000000e+01
1.037159485931501877e+02,1.463486853449194314e+02,3.431431777642721954e+02,-1.803038913089641028e+03,9.843735020584176709e+01,-2.775916650748858956e+02,-6.529593557293729646e+03,4.979995919018392669e+00,9.523238182067871094e+00,7.649187743663787842e-02,-3.824593424797058105e-01,1.100000000000000000e+01
2.759839374292055254e+02,3.136746150655671954e+02,5.200075947732989334e+02,-1.598187023525276118e+03,2.285476117105758931e+02,-1.308484017801947630e+02,-7.164558837139862590e+03,2.110703750615566605e+02,9.523238182067871094e+00,7.649187743663787842e-02,-3.824593424797058105e-01,1.200000000000000000e+01
4.968387713968782009e+02,5.343453441349136028e+02,7.486182738405873351e+02,-1.381489261912578741e+03,4.150556862360015202e+02,6.761167017069874419e+01,-8.189942971690172271e+03,4.381151163570584686e+02,9.523238182067871094e+00,7.649187743663787842e-02,-3.824593424797058105e-01,1.300000000000000000e+01
6.506674507765308135e+02,6.789625972316821390e+02,9.007526611908590439e+02,-1.497845125951813998e+03,5.415370746654157301e+02,1.952406638648142234e+02,-8.977573981068388093e+03,5.400299767848364354e+02,9.523238182067871094e+00,7.649187743663787842e-02,-3.824593424797058105e-01,1.400000000000000000e+01
6.893527580552142808e+02,7.063277695569229309e+02,9.418422635451086080e+02,-1.874459379108464418e+03,5.650896213423077370e+02,2.082255426465505934e+02,-9.212028473892762122e+03,5.266132666923383567e+02,9.523238182067871094e+00,7.649187743663787842e-02,-3.824593424797058105e-01,1.500000000000000000e+01
7.693342293816399433e+02,7.800523877203927441e+02,1.021967629144128068e+03,-2.056806252785800098e+03,6.279810795764806244e+02,2.609406255602020792e+02,-9.753429348617873984e+03,5.945283816422395375e+02,9.523238182067871094e+00,7.649187743663787842e-02,-3.824593424797058105e-01,1.600000000000000000e+01
9.999384547108238621e+02,1.005466090334478395e+03,1.242566794411252431e+03,-1.849570234714061826e+03,8.241337059979505284e+02,4.633488919979204184e+02,-1.106855510990580296e+04,8.372536505218308776e+02,9.523238182067871094e+00,7.649187743663787842e-02,-3.824593424797058105e-01,1.700000000000000000e+01
1.215265023994676767e+03,1.214364011235937596e+03,1.465708274966305908e+03,-1.617061242182495789e+03,1.005359730207693019e+03,6.643824261318670779e+02,-1.204912463678261702e+04,1.068624724753634837e+03,9.523238182067871094e+00,7.649187743663787842e-02,-3.824593424797058105e-01,1.800000000000000000e+01
1.278966995313168127e+03,1.272365109109559626e+03,1.556995414361036183e+03,-1.762304321055224591e+03,1.058092148029441660e+03,7.236186526815924935e+02,-1.224279278415727276e+04,1.122122882313001128e+03,9.523238182067871094e+00,7.649187743663787842e-02,-3.824593424797058105e-01,1.900000000000000000e+01
1.346882724433515477e+03,1.333922383248724373e+03,1.620464968249952790e+03,-2.165911739709409630e+03,1.123673077279433528e+03,7.667094969814756951e+02,-1.302304183247309811e+04,1.124239306782187896e+03,9.523238182067871094e+00,7.649187743663787842e-02,-3.824593424797058105e-01,2.000000000000000000e+01
1.526113318353988689e+03,1.504994654199138722e+03,1.766378987929028654e+03,-2.370277955743399161e+03,1.280866853778740733e+03,9.052907413178552360e+02,-1.453991445748978913e+04,1.247201091296948334e+03,9.523238182067871094e+00,7.649187743663787842e-02,-3.824593424797058105e-01,2.100000000000000000e+01
1.668569949094376170e+03,1.641476389923798024e+03,1.919250164181916034e+03,-2.208748119452431183e+03,1.385303149028430425e+03,1.034482577094525141e+03,-1.507709458262965381e+04,1.436807585975780285e+03,9.523238182067871094e+00,7.649187743663787842e-02,-3.824593424797058105e-01,2.200000000000000000e+01
1.762464778742550152e+03,1.733612400811498446e+03,2.054657222167712007e+03,-1.978541076575882016e+03,1.452923187618335533e+03,1.137466004990171541e+03,-1.514676414668920552e+04,1.595213484815643369e+03,9.523238182067871094e+00,7.649187743663787842e-02,-3.824593424797058105e-01,2.300000000000000000e+01
1.972519951323912665e+03,1.941177927814667555e+03,2.249429728192924358e+03,-1.913066022457361214e+03,1.658902728300350418e+03,1.328818807868262866e+03,-1.692944529584254633e+04,1.731208168669963015e+03,9.523238182067871094e+00,7.649187743663787842e-02,-3.824593424797058105e-01,2.400000000000000000e+01
2.143873079937454804e+03,2.105330449150235381e+03,2.384821388798316093e+03,-1.804851678439301395e+03,1.830602139384732027e+03,1.467519306318059989e+03,-1.876809241305854084e+04,1.794867782372986312e+03,9.523238182067871094e+00,7.649187743663787842e-02,-3.824593424797058105e-01,2.500000000000000000e+01
2.044045363334919557e+03,1.998055905624263687e+03,2.330629699647017333e+03,-1.488128046867077728e+03,1.716054224492349704e+03,1.375791659912416890e+03,-1.782064920051746958e+04,1.761400808648568272e+03,9.523238182067871094e+00,7.649187743663787842e-02,-3.824593424797058105e-01,2.600000000000000000e+01
2.074952118204751969e+03,2.027688871925735839e+03,2.402913992067209620e+03,-1.325476776331016708e+03,1.719243779422341959e+03,1.416481538864562026e+03,-1.758619157201241251e+04,1.886658937725179157e+03,9.523238182067871094e+00,7.649187743663787842e-02,-3.824593424797058105e-01,2.700000000000000000e+01
2.633210535114373215e+03,2.587972042817219517e+03,2.866433614951692107e+03,-1.555245490534062355e+03,2.254658989120995102e+03,1.917232346306342833e+03,-2.217813225328306726e+04,2.304669036763640179e+03,9.523238182067871094e+00,7.649187743663787842e-02,-3.824593424797058105e-01,2.800000000000000000e+01
2.896194200256768454e+03,2.846652888206360785e+03,3.093584189128907838e+03,-1.504963801852090910e+03,2.510460468967578436e+03,2.148507722624211056e+03,-2.444171854112610890e+04,2.463157404157625024e+03,9.523238182067871094e+00,7.649187743663787842e-02,-3.824593424797058105e-01,2.900000000000000000e+01
1.731036932013390242e+03,1.668831727901855402e+03,2.269106568082772355e+03,-4.133022224750104670e+02,1.344262606792378847e+03,1.138193227440416877e+03,-1.372700584732543211e+04,1.757599599974118064e+03,9.523238182067871094e+00,7.649187743663787842e-02,-3.824593424797058105e-01,3.000000000000000000e+01
-2.670236521935902374e+02,-3.397787568606154309e+02,8.547152046116214024e+02,1.200526542455709659e+03,-6.658006316399673779e+02,-5.809668625396133166e+02,5.152110461168459551e+03,6.360793700013348371e+02,9.484992027282714844e+00,7.649187743663787842e-02,-4.589512646198272705e-01,3.100000000000000000e+01
-1.314063458236890028e+03,-1.387130895438006291e+03,1.538518146103965591e+02,2.087403771827811397e+03,-1.737365414186783710e+03,-1.466721747083566243e+03,1.602024223203214206e+04,1.413112837032786047e+02,9.484992027282714844e+00,7.649187743663787842e-02,-4.589512646198272705e-01,3.200000000000000000e+01
-9.830214267865537749e+02,-1.054013240974810287e+03,4.528729386531351793e+02,2.031569970115483784e+03,-1.426989509464869343e+03,-1.166979718397116358e+03,1.415493480343744704e+04,4.244431251754847381e+02,9.484992027282714844e+00,7.649187743663787842e-02,-4.589512646198272705e-01,3.300000000000000000e+01
-5.110696869544771062e+02,-5.902154527274726661e+02,8.267914779097503697e+02,1.925309283993629606e+03,-9.597234837469602553e+02,-7.624263350595606425e+02,9.915523436148003384e+03,6.976745227498719260e+02,9.484992027282714844e+00,7.649187743663787842e-02,-4.589512646198272705e-01,3.400000000000000000e+01
-6.169749501620572119e+02,-7.118317639761162354e+02,7.550376643676021331e+02,2.215772160641196933e+03,-1.063926092015034556e+03,-8.669885164367074140e+02,1.022950640478050809e+04,5.925988180957259601e+02,9.484992027282714844e+00,7.649187743663787842e-02,-4.589512646198272705e-01,3.500000000000000000e+01
-7.345358648467095009e+02,-8.372293633713827603e+02,6.788776531287815033e+02,2.459420225868034322e+03,-1.191249134288814048e+03,-9.728868394695705319e+02,1.134858480408783544e+04,5.406613729420777190e+02,9.484992027282714844e+00,7.649187743663787842e-02,-4.589512646198272705e-01,3.600000000000000000e+01
-4.610085166116598430e+02,-5.568328030398442934e+02,9.162937622514373288e+02,2.395679807231269479e+03,-9.383042742785694372e+02,-7.210748492465554591e+02,1.005930647049304571e+04,7.982221064626099860e+02,9.484992027282714844e+00,7.649187743663787842e-02,-4.589512646198272705e-01,3.700000000000000000e+01
-2.018927694992675015e+02,-2.864948072486921546e+02,1.160089691395744921e+03,2.364786223305370640e+03,-6.917488763779610963e+02,-4.721455294567545025e+02,8.869949971855416152e+03,1.041749586499932320e+03,9.484992027282714844e+00,7.649187743663787842e-02,-4.589512646198272705e-01,3.800000000000000000e+01
-2.219033964937272003e+02,-3.042760963775499476e+02,1.179796729712022625e+03,2.571839413699872694e+03,-7.080289745454920194e+02,-4.773666543591206164e+02,9.101664414720535206e+03,1.034985880806408886e+03,9.484992027282714844e+00,7.649187743663787842e-02,-4.589512646198272705e-01,3.900000000000000000e+01
-2.463151563557385089e+02,-3.365707932707823602e+02,1.162408858408424749e+03,2.784086198827774751e+03,-7.288243310186217059e+02,-5.069367557961346620e+02,8.625746343665725362e+03,9.726866635843524591e+02,9.484992027282714844e+00,7.649187743663787842e-02,-4.589512646198272705e-01,4.000000000000000000e+01
-1.046701193049864287e+02,-2.033307468774941071e+02,1.264828308254642252e+03,2.832354837422048604e+03,-6.017073620791504709e+02,-3.950244084745796727e+02,7.068676548563033066e+03,1.060455622911684713e+03,9.484992027282714844e+00,7.649187743663787842e-02,-4.589512646198272705e-01,4.100000000000000000e+01
5.319198791076837551e+01,-4.669771710526856623e+01,1.412109278362309851e+03,2.832047851174593234e+03,-4.697457515828568830e+02,-2.509712227932160431e+02,6.513832330293313134e+03,1.242307373503748295e+03,9.484992027282714844e+00,7.649187743663787842e-02,-4.589512646198272705e-01,4.200000000000000000e+01
1.477284850678692010e+02,5.105421943744477176e+01,1.533004968937964804e+03,2.896333666671818264e+03,-3.899987004425845498e+02,-1.498952257039828737e+02,7.088730851444013751e+03,1.383628968901422013e+03,9.484992027282714844e+00,7.649187743663787842e-02,-4.589512646198272705e-01,4.300000000000000000e+01
2.291961842153750695e+02,1.315837079326194043e+02,1.622008997573492252e+03,3.012323979345130738e+03,-3.047872597950751015e+02,-7.144958018106365216e+01,6.627922074027272174e+03,1.429423601878693944e+03,9.484992027282714844e+00,7.649187743663787842e-02,-4.589512646198272705e-01,4.400000000000000000e+01
2.856097591115774321e+02,1.811517804426166549e+02,1.659667852371325125e+03,3.146019097141059774e+03,-2.424758238899167964e+02,-3.152165994732160925e+01,4.721272418150010708e+03,1.410779617951833188e+03,9.484992027282714844e+00,7.649187743663787842e-02,-4.589512646198272705e-01,4.500000000000000000e+01
3.206955500981598561e+02,2.124356790396117276e+02,1.684555060841155637e+03,3.246874235764648802e+03,-2.159703166539832182e+02,-6.352765065416065227e+00,3.649833497190032176e+03,1.436516853789374863e+03,9.484992027282714844e+00,7.649187743663787842e-02,-4.589512646198272705e-01,4.600000000000000000e+01
4.220792195676444862e+02,3.199736148275908363e+02,1.791690569976529787e+03,3.267826246761312632e+03,-1.326213326593226611e+02,9.696606631633790130e+01,4.445103351442322491e+03,1.584477736325085516e+03,9.484992027282714844e+00,7.649187743663787842e-02,-4.589512646198272705e-01,4.700000000000000000e+01
5.800821588607708463e+02,4.874854655075654364e+02,1.955731992524077668e+03,3.272360387558835555e+03,1.651311814382734156e+01,2.592100976463252664e+02,4.610290226322256785e+03,1.760286905411513771e+03,9.484992027282714844e+00,7.649187743663787842e-02,-4.589512646198272705e-01,4.800000000000000000e+01
6.645626049352005111e+02,5.733888296565904739e+02,2.039590808569823821e+03,3.371172043826456957e+03,1.085442068664432327e+02,3.440412597881410193e+02,2.244409209131380521e+03,1.807615837153377470e+03,9.484992027282714844e+00,7.649187743663787842e-02,-4.589512646198272705e-01,4.900000000000000000e+01
6.562276982617519252e+02,5.582108673806188790e+02,2.023025029650746092e+03,3.534155773377393416e+03,1.108889443051641592e+02,3.305363132453348953e+02,6.680861605952577520e+02,1.753022708343248269e+03,9.484992027282714844e+00,7.649187743663787842e-02,-4.589512646198272705e-01,5.000000000000000000e+01
6.864760579587276652e+02,5.831185445442032460e+02,2.040639137897089768e+03,3.621316563941213190e+03,1.382373960530949262e+02,3.521275194163471269e+02,4.508233959488945402e+03,1.775268583102863431e+03,9.484992027282714844e+00,7.649187743663787842e-02,-4.589512646198272705e-01,5.100000000000000000e+01
8.182027883991777344e+02,7.161136647209041257e+02,2.167451194023684366e+03,3.603539056332532255e+03,2.548427625152214659e+02,4.791196032896444876e+02,1.191269276164988332e+04,1.936268090135190505e+03,9.523238182067871094e+00,1.147378161549568176e-01,-3.059675097465515137e-01,5.200000000000000000e+01
9.588776503866988605e+02,8.605070712776600885e+02,2.315847981543344758e+03,3.602861577240081715e+03,3.865326410709772063e+02,6.230755207066230241e+02,1.610900504837460903e+04,2.096512646675098949e+03,9.523238182067871094e+00,1.147378161549568176e-01,-3.059675097465515137e-01,5.300000000000000000e+01
1.011695791808988702e+03,9.146619589765177807e+02,2.375867052004634388e+03,3.706325755067023238e+03,4.484802576203853164e+02,6.811027436240107136e+02,1.481846460489459423e+04,2.122435780755673932e+03,9.523238182067871094e+00,1.147378161549568176e-01,-3.059675097465515137e-01,5.400000000000000000e+01
1.003367424771252786e+03,9.053452690716217148e+02,2.362413426523364706e+03,3.849495747195059266e+03,4.562246256266777209e+02,6.724352631688881274e+02,1.230950826274172687e+04,2.067482846433267696e+03,9.523238182067871094e+00,1.147378161549568176e-01,-3.059675097465515137e-01,5.500000000000000000e+01
1.034411734018804964e+03,9.353906476155830205e+02,2.382186035882017222e+03,3.915509107694082559e+03,4.893352409710897177e+02,6.986265351716283476e+02,1.190430242464655385e+04,2.089601349026150274e+03,9.523238182067871094e+00,1.147378161549568176e-01,-3.059675097465515137e-01,5.600000000000000000e+01
1.147030777123687812e+03,1.048480823742974735e+03,2.490197907947814656e+03,3.893001652493724123e+03,5.870252116128124271e+02,8.078693887709347337e+02,1.235987485817793640e+04,2.235763409228198725e+03,9.523238182067871094e+00,1.147378161549568176e-01,-3.059675097465515137e-01,5.700000000000000000e+01
1.274998272537089406e+03,1.177739360301787883e+03,2.621510060568993140e+03,3.886724705453783827e+03,7.015719061391930609e+02,9.353189279394267714e+02,1.202747476345959331e+04,2.381380327399042471e+03,9.523238182067871094e+00,1.147378161549568176e-01,-3.059675097465515137e-01,5.800000000000000000e+01
1.331037385304325426e+03,1.232813800015210745e+03,2.678295699216250796e+03,3.976176446476705678e+03,7.592295128831749480e+02,9.890494009744975301e+02,1.138041129840538269e+04,2.400471237822204785e+03,9.523238182067871094e+00,1.147378161549568176e-01,-3.059675097465515137e-01,5.900000000000000000e+01
1.321432627476011476e+03,1.218380531009547667e+03,2.659541941906343254e+03,4.110144011740277165e+03,7.570650280296252959e+02,9.729247811149601830e+02,1.092002474881026501e+04,2.337502180175371905e+03,9.523238182067871094e+00,1.147378161549568176e-01,-3.059675097465515137e-01,6.000000000000000000e+01
1.343991203511556705e+03,1.236794233434181933e+03,2.668162271429153407e+03,4.171809519807056859e+03,7.772640102672131661e+02,9.893325848450411968e+02,1.025982661583233130e+04,2.351146441090254029e+03,9.523238182067871094e+00,1.147378161549568176e-01,-3.059675097465515137e-01,6.100000000000000000e+01
1.448223695468534743e+03,1.343668542102198899e+03,2.767622063385706497e+03,4.141936586334984895e+03,8.710246872831105520e+02,1.094680683279023924e+03,9.608342842066378580e+03,2.492791283607386504e+03,9.523238182067871094e+00,1.147378161549568176e-01,-3.059675097465515137e-01,6.200000000000000000e+01
1.568217478353010847e+03,1.470734895380729995e+03,2.894458814486329175e+03,4.124134823801335187e+03,9.871710738461019901e+02,1.220609215236738009e+03,9.502841889319937764e+03,2.635255242079926575e+03,9.523238182067871094e+00,1.147378161549568176e-01,-3.059675097465515137e-01,6.300000000000000000e+01
1.615444880553855228e+03,1.520351998710554653e+03,2.944616996516909694e+03,4.201595693020390172e+03,1.042478780021431476e+03,1.268031245361831679e+03,9.521721508382514003e+03,2.648543934421845279e+03,9.523238182067871094e+00,1.147378161549568176e-01,-3.059675097465515137e-01,6.400000000000000000e+01
1.601071062528028051e+03,1.501276261921314017e+03,2.917027962076059339e+03,4.323322515922434832e+03,1.037005912316749345e+03,1.244373839525774656e+03,8.845747648879307235e+03,2.579182442173997060e+03,9.523238182067871094e+00,1.147378161549568176e-01,-3.059675097465515137e-01,6.500000000000000000e+01
1.619626422859358627e+03,1.516391232119175129e+03,2.916319207106736030e+03,4.375684149792974495e+03,1.052814678847448249e+03,1.253297929775501871e+03,7.683791620159358899e+03,2.584892566415976034e+03,9.523238182067871094e+00,1.147378161549568176e-01,-3.059675097465515137e-01,6.600000000000000000e+01
1.718323404995343026e+03,1.619250577134642754e+03,3.008410497806440617e+03,4.339609598144764277e+03,1.138387969381364428e+03,1.351062866568341633e+03,7.107616841273753380e+03,2.715974477796209158e+03,9.523238182067871094e+00,1.147378161549568176e-01,-3.059675097465515137e-01,6.700000000000000000e+01
1.831944183119164563e+03,1.739108647805760029e+03,3.128173681541633414e+03,4.316506579542813597e+03,1.241814563536492869e+03,1.468708386379581952e+03,7.434120832227437859e+03,2.846166993394660494e+03,9.523238182067871094e+00,1.147378161549568176e-01,-3.059675097465515137e-01,6.800000000000000000e+01
1.872310815300953891e+03,1.778614936717758155e+03,3.169352687387488004e+03,4.387306951267121804e+03,1.284854790514409387e+03,1.507606762415245157e+03,7.469053483871452954e+03,2.848029557178177129e+03,9.523238182067871094e+00,1.147378161549568176e-01,-3.059675097465515137e-01,6.900000000000000000e+01
1.849688208229473730e+03,1.748904185990532369e+03,3.133065059284680956e+03,4.499906367904441140e+03,1.271702700481921056e+03,1.475939968945403962e+03,6.239720353426070687e+03,2.769455752019358442e+03,9.523238182067871094e+00,1.147378161549568176e-01,-3.059675097465515137e-01,7.000000000000000000e+01
1.859041401751002013e+03,1.755175577109894675e+03,3.126855942147677524e+03,4.541141050070720667e+03,1.281858391872922766e+03,1.477625931417321681e+03,4.950912001209499977e+03,2.767284320037901125e+03,9.523238182067871094e+00,1.147378161549568176e-01,-3.059675097465515137e-01,7.100000000000000000e+01
1.948992256109579330e+03,1.851931864343266852e+03,3.214637524819327155e+03,4.493504400207056278e+03,1.360378363569859403e+03,1.569101416331556720e+03,5.177606513088323481e+03,2.890697717882110283e+03,9.523238182067871094e+00,1.147378161549568176e-01,-3.059675097465515137e-01,7.200000000000000000e+01
2.053930919110020568e+03,1.966966151077383074e+03,3.327442790169720865e+03,4.459596682234132459e+03,1.457169616405495162e+03,1.681454801649661476e+03,5.640439313884354306e+03,3.013979808607490668e+03,9.523238182067871094e+00,1.147378161549568176e-01,-3.059675097465515137e-01,7.300000000000000000e+01
2.084522222708877052e+03,2.000204027287016061e+03,3.359685811894017206e+03,4.520543249911042039e+03,1.496392752481744992e+03,1.715805831763264450e+03,4.235473187074449925e+03,3.011205607666607648e+03,9.523238182067871094e+00,1.147378161549568176e-01,-3.059675097465515137e-01,7.400000000000000000e+01
2.052124261477576511e+03,1.962159342499390959e+03,3.315676652016504704e+03,4.624168718757257011e+03,1.480252384506612543e+03,1.680340857058070242e+03,2.909404391744103123e+03,2.930546584610516675e+03,9.523238182067871094e+00,1.147378161549568176e-01,-3.059675097465515137e-01,7.500000000000000000e+01
2.053507876102907630e+03,1.959678683592900143e+03,3.302459584712018113e+03,4.657344896175720351e+03,1.485990962433973436e+03,1.678926348040733728e+03,5.728824168689057842e+03,2.927035250507084129e+03,9.523238182067871094e+00,1.147378161549568176e-01,-3.059675097465515137e-01,7.600000000000000000e+01
2.136519526010904428e+03,2.048020873697139905e+03,3.381152765159211867e+03,4.602352526684683653e+03,1.559878820045391876e+03,1.767083689092995428e+03,1.185745080110964409e+04,3.047733388323606960e+03,9.484992027282714844e+00,3.824593871831893921e-02,-3.442134261131286621e-01,7.700000000000000000e+01
2.233848112579026747e+03,2.155190386347574531e+03,3.483750477171514831e+03,4.561252354980635573e+03,1.652749443683425852e+03,1.875179420611692649e+03,1.574409342131114499e+04,3.166514911718603344e+03,9.484992027282714844e+00,3.824593871831893921e-02,-3.442134261131286621e-01,7.800000000000000000e+01
2.256811589958150762e+03,2.183430571082874849e+03,3.508239571021294978e+03,4.614512127425696235e+03,1.686690345663380867e+03,1.904847637970126698e+03,1.500823278011168259e+04,3.157929110112383569e+03,9.484992027282714844e+00,3.824593871831893921e-02,-3.442134261131286621e-01,7.900000000000000000e+01
2.217972169995613058e+03,2.144783129988928522e+03,3.458676162060281968e+03,4.709696622004883466e+03,1.662429930739345764e+03,1.864295912873622456e+03,1.292335846315350136e+04,3.069540374110870289e+03,9.484992027282714844e+00,3.824593871831893921e-02,-3.442134261131286621e-01,8.000000000000000000e+01
2.212891102229596981e+03,2.142475746987806360e+03,3.438248976914237574e+03,4.734670205324262497e+03,1.659085007289139185e+03,1.856054965534812027e+03,1.243146579934974216e+04,3.055841373075859337e+03,9.484992027282714844e+00,3.824593871831893921e-02,-3.442134261131286621e-01,8.100000000000000000e+01
2.288352712904811597e+03,2.227313076858496970e+03,3.507190477551430831e+03,4.673347380133627667e+03,1.725805174080592678e+03,1.935613940468253986e+03,1.265447704754151164e+04,3.165911553586475293e+03,9.484992027282714844e+00,3.824593871831893921e-02,-3.442134261131286621e-01,8.200000000000000000e+01
2.379588879238959635e+03,2.328894135749998895e+03,3.601092899176872834e+03,4.627748151483805486e+03,1.814328900526295229e+03,2.035514563902569535e+03,1.221855029156357705e+04,3.276563945131714263e+03,9.484992027282714844e+00,3.824593871831893921e-02,-3.442134261131286621e-01,8.300000000000000000e+01
2.401036239489186755e+03,2.353384546326238706e+03,3.620593392076894816e+03,4.676452876512379589e+03,1.845346294255585690e+03,2.058482381507220907e+03,1.161182889927132783e+04,3.262330760997978814e+03,9.484992027282714844e+00,3.824593871831893921e-02,-3.442134261131286621e-01,8.400000000000000000e+01
2.364059158205380299e+03,2.311076668343172969e+03,3.568572834340141071e+03,4.766264353563410623e+03,1.817477325808452179e+03,2.011632946571829279e+03,1.137168750313418241e+04,3.168552687083105411e+03,9.484992027282714844e+00,3.824593871831893921e-02,-3.442134261131286621e-01,8.500000000000000000e+01
2.360042316455730088e+03,2.300547708992851767e+03,3.546114090796630990e+03,4.786219544124996901e+03,1.809160240952171080e+03,1.997320357531626769e+03,1.112481357685115654e+04,3.149226739863071543e+03,9.484992027282714844e+00,3.824593871831893921e-02,-3.442134261131286621e-01,8.600000000000000000e+01
2.433166748143195946e+03,2.373374894544394920e+03,3.612580853291015956e+03,4.720529055444742880e+03,1.870550703313747363e+03,2.072443832519988064e+03,1.082820363187716976e+04,3.254670629719087628e+03,9.484992027282714844e+00,3.824593871831893921e-02,-3.442134261131286621e-01,8.700000000000000000e+01
2.518579285688003893e+03,2.464088958801250556e+03,3.702632562749012777e+03,4.669949000337553116e+03,1.953780481818366525e+03,2.169603306224585594e+03,1.075306370223989688e+04,3.361813808300653363e+03,9.484992027282714844e+00,3.824593871831893921e-02,-3.442134261131286621e-01,8.800000000000000000e+01
2.531828426357691114e+03,2.480888425879516490e+03,3.715600539343387936e+03,4.712881820105590123e+03,1.978806314199209737e+03,2.189999397560487523e+03,1.053553838358601024e+04,3.344527407665221745e+03,9.484992027282714844e+00,3.824593871831893921e-02,-3.442134261131286621e-01,8.900000000000000000e+01
2.486396020695480729e+03,2.433321183286995620e+03,3.654549386993542612e+03,4.797315289798923914e+03,1.944989206384025238e+03,2.140211142993596241e+03,9.887866840410906661e+03,3.248305034068435816e+03,9.484992027282714844e+00,3.824593871831893921e-02,-3.442134261131286621e-01,9.000000000000000000e+01
2.475797720199370360e+03,2.420316562405616878e+03,3.622244759371724285e+03,4.812465364812868756e+03,1.932679713935546260e+03,2.122618195033951451e+03,9.427139438598471315e+03,3.226309204868698089e+03,9.484992027282714844e+00,3.824593871831893921e-02,-3.442134261131286621e-01,9.100000000000000000e+01
2.544052009222820743e+03,2.493128733289094271e+03,3.679246149223549310e+03,4.741924706601685102e+03,1.991251616350652739e+03,2.192744477093057412e+03,9.518765916269279842e+03,3.326281986865905310e+03,9.484992027282714844e+00,3.824593871831893921e-02,-3.442134261131286621e-01,9.200000000000000000e+01
2.624369668536871359e+03,2.583046872429977157e+03,3.761125376729029085e+03,4.686775776496483559e+03,2.070320853143430213e+03,2.282555558364801072e+03,9.471845607978899352e+03,3.425257076840306581e+03,9.484992027282714844e+00,3.824593871831893921e-02,-3.442134261131286621e-01,9.300000000000000000e+01
2.631796536171988919e+03,2.595942097985619512e+03,3.769342192361978505e+03,4.725508612152299975e+03,2.091027746950629989e+03,2.296087018065792108e+03,8.873854663336482190e+03,3.401596122490082507e+03,9.484992027282714844e+00,3.824593871831893921e-02,-3.442134261131286621e-01,9.400000000000000000e+01
2.581165081314250074e+03,2.542333983420267941e+03,3.708288592163000430e+03,4.804681358943613304e+03,2.056171548168391382e+03,2.242735242146104611e+03,8.342013888821878936e+03,3.303203674648287233e+03,9.484992027282714844e+00,3.824593871831893921e-02,-3.442134261131286621e-01,9.500000000000000000e+01
2.566664336896744771e+03,2.521727745991185202e+03,3.677893606771945088e+03,4.813074003390200232e+03,2.044445854641450524e+03,2.222906531164974240e+03,8.213926192542912759e+03,3.279408979254793849e+03,9.484992027282714844e+00,3.824593871831893921e-02,-3.442134261131286621e-01,9.600000000000000000e+01
2.631986467087660458e+03,2.584833908092251477e+03,3.733905694798617333e+03,4.736371409522163958e+03,2.099570584102784778e+03,2.288551300464194810e+03,8.016891282801240777e+03,3.374151560103853626e+03,9.484992027282714844e+00,3.824593871831893921e-02,-3.442134261131286621e-01,9.700000000000000000e+01
2.710588623662085411e+03,2.665691940452808922e+03,3.810771680061862298e+03,4.676884748274513186e+03,2.170517365500599226e+03,2.372702326387883204e+03,7.676965098644855971e+03,3.466479825616294420e+03,9.484992027282714844e+00,3.824593871831893921e-02,-3.442134261131286621e-01,9.800000000000000000e+01
2.717399613228089947e+03,2.674834800757470475e+03,3.812678301692420973e+03,4.711364056874303969e+03,2.183297484490337865e+03,2.382884305984656748e+03,7.562593218467958650e+03,3.437891153388791281e+03,9.484992027282714844e+00,3.824593871831893921e-02,-3.442134261131286621e-01,9.900000000000000000e+01
2.665138962004929908e+03,2.622273388956092731e+03,3.745614823204282402e+03,4.785246486503525375e+03,2.142485034776597786e+03,2.327743458831738280e+03,7.249896717049790823e+03,3.335222729676981544e+03,9.484992027282714844e+00,3.824593871831893921e-02,-3.442134261131286621e-01,1.000000000000000000e+02
2.646180054601813026e+03,2.602226587104996725e+03,3.708942412448373034e+03,4.789278530752131701e+03,2.124453678448007395e+03,2.304511904612326362e+03,6.273482621663964892e+03,3.306572273315708117e+03,9.484992027282714844e+00,3.824593871831893921e-02,-3.442134261131286621e-01,1.010000000000000000e+02
2.705820679808786281e+03,2.662563720546966124e+03,3.759265988466461749e+03,4.710503963698150983e+03,2.174112211233694779e+03,2.366182541232066797e+03,5.941746884652054177e+03,3.398530460643864899e+03,9.484992027282714844e+00,3.824593871831893921e-02,-3.442134261131286621e-01,1.020000000000000000e+02
2.780276722188402346e+03,2.737799241011685808e+03,3.833245597588713281e+03,4.648920702646643804e+03,2.244948546887890643e+03,2.448906779258256392e+03,7.909020700949361526e+03,3.491836787897817885e+03,9.484992027282714844e+00,3.824593871831893921e-02,-3.442134261131286621e-01,1.030000000000000000e+02
2.783815949361190178e+03,2.738302340318103234e+03,3.834634958127230675e+03,4.678670280611433554e+03,2.262275464004711921e+03,2.458512589953779298e+03,1.105853442350004661e+04,3.464592021492981985e+03,9.484992027282714844e+00,1.147378161549568176e-01,-4.207052886486053467e-01,1.040000000000000000e+02
2.726224914300163164e+03,2.675296819138347928e+03,3.766460494249819476e+03,4.746184236661698378e+03,2.224360425364644016e+03,2.399454655447295409e+03,1.256108303250940480e+04,3.359849150230657870e+03,9.484992027282714844e+00,1.147378161549568176e-01,-4.207052886486053467e-01,1.050000000000000000e+02
2.700015603373851718e+03,2.648335196219113641e+03,3.726835489389955455e+03,4.744567714867286668e+03,2.204424402861068756e+03,2.369044806967046043e+03,1.194188786824693125e+04,3.325843720939488776e+03,9.484992027282714844e+00,1.147378161549568176e-01,-4.207052886486053467e-01,1.060000000000000000e+02
2.754061591051191044e+03,2.708577169415867957e+03,3.773411304786440724e+03,4.660638375034755882e+03,2.249534659151346659e+03,2.422627767493821921e+03,1.124126752542602480e+04,3.410482529751711354e+03,9.484992027282714844e+00,1.147378161549568176e-01,-4.207052886486053467e-01,1.070000000000000000e+02
2.826342828707518038e+03,2.786512226148501213e+03,3.843165971609613280e+03,4.592891103037123685e+03,2.314465439316159518e+03,2.496344685306296924e+03,1.138835165382898413e+04,3.495121324903923778e+03,9.484992027282714844e+00,1.147378161549568176e-01,-4.207052886486053467e-01,1.080000000000000000e+02
2.829097999836602412e+03,2.787471813254318477e+03,3.839363692368407101e+03,4.616400596817058613e+03,2.323607023096382818e+03,2.497243090873225810e+03,1.127651579281965678e+04,3.460061692340705576e+03,9.484992027282714844e+00,1.147378161549568176e-01,-4.207052886486053467e-01,1.090000000000000000e+02
2.770156027811941840e+03,2.723080316091011355e+03,3.765735857627449150e+03,4.680210026926146384e+03,2.276691358106044390e+03,2.434764179250732468e+03,1.045901966899793842e+04,3.351016242267633515e+03,9.484992027282714844e+00,1.147378161549568176e-01,-4.207052886486053467e-01,1.100000000000000000e+02
2.742018899363582477e+03,2.694257703918966399e+03,3.721073538527546134e+03,4.677920495032078179e+03,2.250264996774878909e+03,2.407708511531300246e+03,9.941655603352155595e+03,3.315299025432344479e+03,9.484992027282714844e+00,1.147378161549568176e-01,-4.207052886486053467e-01,1.110000000000000000e+02
2.792595532976078630e+03,2.750265311359172301e+03,3.761807409058804296e+03,4.594446509080231408e+03,2.291546874528506123e+03,2.465743901453947728e+03,1.008643544677134742e+04,3.398010631469791406e+03,9.484992027282714844e+00,1.147378161549568176e-01,-4.207052886486053467e-01,1.120000000000000000e+02
2.857573067380554221e+03,2.821305754065233941e+03,3.824110644355444947e+03,4.526932493094178426e+03,2.352931668491028631e+03,2.540444285749359551e+03,1.003618926726360405e+04,3.480519272164138329e+03,9.484992027282714844e+00,1.147378161549568176e-01,-4.207052886486053467e-01,1.130000000000000000e+02
2.849895853020681898e+03,2.816560531437374266e+03,3.813364498866957092e+03,4.550313000156089402e+03,2.358961008618839969e+03,2.540360474004125990e+03,9.420284669991973715e+03,3.444615861589620181e+03,9.484992027282714844e+00,1.147378161549568176e-01,-4.207052886486053467e-01,1.140000000000000000e+02
2.781519707871405444e+03,2.749344365846027358e+03,3.735688152518684092e+03,4.613066319363744697e+03,2.311838114868506182e+03,2.476356140808237797e+03,8.852198342873511137e+03,3.335309647207172020e+03,9.484992027282714844e+00,1.147378161549568176e-01,-4.207052886486053467e-01,1.150000000000000000e+02
2.746745496330678179e+03,2.717268940014770124e+03,3.689124082433889726e+03,4.608287442917491717e+03,2.288205745020747145e+03,2.445748694635175070e+03,8.653959604775396656e+03,3.298866735567660271e+03,9.484992027282714844e+00,1.147378161549568176e-01,-4.207052886486053467e-01,1.160000000000000000e+02
2.791396062085766971e+03,2.767136058798465456e+03,3.727975714602932385e+03,4.521996865476203311e+03,2.332220383099147057e+03,2.499156508183800270e+03,8.486893091949275913e+03,3.381364875473755092e+03,9.484992027282714844e+00,1.147378161549568176e-01,-4.207052886486053467e-01,1.170000000000000000e+02
2.851047513072480797e+03,2.830966970484397734e+03,3.788258433066599537e+03,4.452432531606647899e+03,2.393540667814060271e+03,2.571549958653217800e+03,8.232382449403874489e+03,3.464192837947662156e+03,9.484992027282714844e+00,1.147378161549568176e-01,-4.207052886486053467e-01,1.180000000000000000e+02
2.842296427375054918e+03,2.820789229573705597e+03,3.776216405841490086e+03,4.473218800566602113e+03,2.396101827059419520e+03,2.570939742754041617e+03,8.156729036674019881e+03,3.426584012684989375e+03,9.484992027282714844e+00,1.147378161549568176e-01,-4.207052886486053467e-01,1.190000000000000000e+02
2.778001223767508236e+03,2.751546977122250610e+03,3.697187170473825063e+03,4.531129651621200537e+03,2.342648291288703149e+03,2.504259913050398609e+03,8.253041729968448635e+03,3.312399803015053294e+03,9.484992027282714844e+00,1.147378161549568176e-01,-4.207052886486053467e-01,1.200000000000000000e+02
2.748017363047988511e+03,2.721450954029785862e+03,3.647801846117283731e+03,4.520552904075958395e+03,2.310849908882221371e+03,2.467832999745434336e+03,8.215530031926167794e+03,3.269812684179915777e+03,9.484992027282714844e+00,1.147378161549568176e-01,-4.207052886486053467e-01,1.210000000000000000e+02
2.794773510054970302e+03,2.775399171841532734e+03,3.683102577883958475e+03,4.430075303139307834e+03,2.346651864293758081e+03,2.514247899280077945e+03,7.991633045439824855e+03,3.346218324315438622e+03,9.484992027282714844e+00,1.147378161549568176e-01,-4.207052886486053467e-01,1.220000000000000000e+02
2.855065545135558750e+03,2.840908984980861533e+03,3.741128464545099177e+03,4.357722689905563129e+03,2.402002562758885688e+03,2.579421652181554691e+03,7.794588008851387713e+03,3.423008572595022997e+03,9.484992027282714844e+00,1.147378161549568176e-01,-4.207052886486053467e-01,1.230000000000000000e+02
2.846640243915424890e+03,2.827128301612142423e+03,3.728139951185148675e+03,4.375145445004009161e+03,2.402435118276734556e+03,2.572368137008242229e+03,7.717724816451696825e+03,3.381290254252990962e+03,9.484992027282714844e+00,1.147378161549568176e-01,-4.207052886486053467e-01,1.240000000000000000e+02
2.780898320362267441e+03,2.750121713532374997e+03,3.647523249603611475e+03,4.429366960483337607e+03,2.350307355327605819e+03,2.502885768943009680e+03,7.719599502794455475e+03,3.267310550579511073e+03,9.484992027282714844e+00,1.147378161549568176e-01,-4.207052886486053467e-01,1.250000000000000000e+02
2.747396440475617055e+03,2.710656894392563117e+03,3.595348747790354537e+03,4.416634443273473153e+03,2.320911942898798316e+03,2.468101199890222688e+03,7.740437882617181458e+03,3.227342634901012389e+03,9.484992027282714844e+00,1.147378161549568176e-01,-4.207052886486053467e-01,1.260000000000000000e+02
2.790602629322924713e+03,2.756342411535749306e+03,3.628289597499113825e+03,4.325349853893056206e+03,2.357696760792286113e+03,2.516844256806365593e+03,7.622064420070157212e+03,3.304098497258527004e+03,9.484992027282714844e+00,1.147378161549568176e-01,-4.207052886486053467e-01,1.270000000000000000e+02
2.848241045961003238e+03,2.818509238974172149e+03,3.685348958287235746e+03,4.251839656621697941e+03,2.411815336841807493e+03,2.581555777869294616e+03,7.299018830288596291e+03,3.377729199923709530e+03,9.484992027282714844e+00,1.147378161549568176e-01,-4.207052886486053467e-01,1.280000000000000000e+02
2.837598809789343704e+03,2.808245155258118757e+03,3.672030583716457841e+03,4.267674497456191602e+03,2.409329763262536289e+03,2.571953937978438262e+03,7.116262990743329283e+03,3.331898470568822177e+03,9.484992027282714844e+00,1.147378161549568176e-01,-4.207052886486053467e-01,1.290000000000000000e+02
2.770777994568149552e+03,2.737607342102493931e+03,3.591356315129492032e+03,4.320530143959673296e+03,2.353132661699457458e+03,2.499173453420518854e+03,7.337051663331787495e+03,3.214026364506590198e+03,9.484992027282714844e+00,1.147378161549568176e-01,-4.207052886486053467e-01,1.300000000000000000e+02
2.737866642531152593e+03,2.701100224661707216e+03,3.539687648517458911e+03,4.305432758020888286e+03,2.319127802824599257e+03,2.459080468953188301e+03,7.445611756856038483e+03,3.169224145409097218e+03,9.484992027282714844e+00,1.147378161549568176e-01,-4.207052886486053467e-01,1.310000000000000000e+02
2.781300056183313700e+03,2.745176829320576871e+03,3.572532405690384621e+03,4.209723488761315821e+03,2.351977642604331777e+03,2.500190968867524134e+03,6.927990835163884185e+03,3.240720971806819762e+03,9.484992027282714844e+00,1.147378161549568176e-01,-4.207052886486053467e-01,1.320000000000000000e+02
2.836809426945380437e+03,2.804628120665435745e+03,3.627146142125146980e+03,4.131957773142303267e+03,2.403985162854051396e+03,2.558826683414299623e+03,6.556577750874994308e+03,3.311626063947732291e+03,9.484992027282714844e+00,1.147378161549568176e-01,-4.207052886486053467e-01,1.330000000000000000e+02
2.822403773303603430e+03,2.792382692744980886e+03,3.609788934572263770e+03,4.146709813460297482e+03,2.401479247008164293e+03,2.548693155958582793e+03,7.513171893704509785e+03,3.267044355120536238e+03,9.484992027282714844e+00,1.147378161549568176e-01,-4.207052886486053467e-01,1.340000000000000000e+02
2.751100909827694977e+03,2.719504271869807781e+03,3.525658179841013407e+03,4.201396031944598690e+03,2.346842035417429543e+03,2.479749934063292130e+03,9.358273575076422276e+03,3.152349748815943713e+03,9.484992027282714844e+00,7.649187743663787842e-02,-3.824593424797058105e-01,1.350000000000000000e+02
2.712385708067268752e+03,2.679842942983633293e+03,3.470980950778193346e+03,4.188859152784774778e+03,2.314620271763421897e+03,2.443332903663118941e+03,1.038588899242929983e+04,3.109606439929706539e+03,9.484992027282714844e+00,7.649187743663787842e-02,-3.824593424797058105e-01,1.360000000000000000e+02
2.749444869854928584e+03,2.719759697319432235e+03,3.499742648733362330e+03,4.095335374082925227e+03,2.347393305727599454e+03,2.485476782700769036e+03,1.005276639150441224e+04,3.180706410893029897e+03,9.484992027282714844e+00,7.649187743663787842e-02,-3.824593424797058105e-01,1.370000000000000000e+02
2.800498456173047543e+03,2.773291905415259862e+03,3.549908890465691911e+03,4.018474611280271347e+03,2.396469628250592905e+03,2.543032264301175019e+03,9.491482693145328085e+03,3.249379332098279065e+03,9.484992027282714844e+00,7.649187743663787842e-02,-3.824593424797058105e-01,1.380000000000000000e+02
2.783716239696145749e+03,2.753666888733542692e+03,3.529603875455465641e+03,4.031342509297314791e+03,2.389777909437724247e+03,2.530596260648104362e+03,9.535470943896089011e+03,3.202465777566480938e+03,9.484992027282714844e+00,7.649187743663787842e-02,-3.824593424797058105e-01,1.390000000000000000e+02
2.709600220859838373e+03,2.674266390562492234e+03,3.443712373432722416e+03,4.081930682480053292e+03,2.332032277484171573e+03,2.458820575962824933e+03,9.759665637286308993e+03,3.087117356097282936e+03,9.484992027282714844e+00,7.649187743663787842e-02,-3.824593424797058105e-01,1.400000000000000000e+02
2.666799500146372338e+03,2.630461592035878766e+03,3.387293551590442803e+03,4.066325236853093884e+03,2.298150547914344770e+03,2.420504441544016572e+03,9.639045437580414728e+03,3.045689591936848956e+03,9.484992027282714844e+00,7.649187743663787842e-02,-3.824593424797058105e-01,1.410000000000000000e+02
2.700142583283315616e+03,2.667850616242799333e+03,3.415040776640851618e+03,3.972412231763442833e+03,2.329700526076412189e+03,2.462521123468002770e+03,9.351498592056439520e+03,3.118378688550332754e+03,9.484992027282714844e+00,7.649187743663787842e-02,-3.824593424797058105e-01,1.420000000000000000e+02
2.748865078992836061e+03,2.719885249114371618e+03,3.465747975048419903e+03,3.895718708066457566e+03,2.377564866111386436e+03,2.520080306286527957e+03,9.198505373742173106e+03,3.187023132475272178e+03,9.484992027282714844e+00,7.649187743663787842e-02,-3.824593424797058105e-01,1.430000000000000000e+02
2.731254644885408197e+03,2.700589156103012101e+03,3.446305713702605317e+03,3.906881504341140044e+03,2.369531643725342747e+03,2.505316252161726879e+03,9.160753462390290224e+03,3.138116944878166123e+03,9.484992027282714844e+00,7.649187743663787842e-02,-3.824593424797058105e-01,1.440000000000000000e+02
2.658392558857531185e+03,2.623486312476757121e+03,3.360353934709884925e+03,3.954339629819083711e+03,2.309643710161641593e+03,2.428666830549639144e+03,9.154372064548826529e+03,3.019198849284036442e+03,9.484992027282714844e+00,7.649187743663787842e-02,-3.824593424797058105e-01,1.450000000000000000e+02
2.618380736744658861e+03,2.582740585842996552e+03,3.303259895497908474e+03,3.936237458724384396e+03,2.272663807970011476e+03,2.384978598551359028e+03,9.129025034848871655e+03,2.972537133901791094e+03,9.484992027282714844e+00,7.649187743663787842e-02,-3.824593424797058105e-01,1.460000000000000000e+02
2.653467821085415380e+03,2.622911352982246171e+03,3.329602412675289997e+03,3.841506638858319093e+03,2.301129743458027860e+03,2.423076735892688248e+03,8.980660139461971994e+03,3.038883078435078460e+03,9.484992027282714844e+00,7.649187743663787842e-02,-3.824593424797058105e-01,1.470000000000000000e+02
2.701400065955312130e+03,2.676749918615787010e+03,3.377369232498742349e+03,3.764973719023259036e+03,2.346722994989774634e+03,2.478805089042627515e+03,8.738743047534306243e+03,3.102410879207424387e+03,9.484992027282714844e+00,7.649187743663787842e-02,-3.824593424797058105e-01,1.480000000000000000e+02
2.681680775081582397e+03,2.657232274943840821e+03,3.354696690609365760e+03,3.775888461586367157e+03,2.337370986527459081e+03,2.464079310878911656e+03,8.629026203952598735e+03,3.051811791067688318e+03,9.484992027282714844e+00,7.649187743663787842e-02,-3.824593424797058105e-01,1.490000000000000000e+02
2.606620913954047410e+03,2.577712420435006152e+03,3.267981385102021704e+03,3.822163047438767535e+03,2.277196890413530582e+03,2.388616713539859120e+03,8.707219787884303514e+03,2.934060545922630808e+03,9.484992027282714844e+00,7.649187743663787842e-02,-3.824593424797058105e-01,1.500000000000000000e+02
2.564476660684737453e+03,2.534131327005728508e+03,3.212655801550145952e+03,3.802423597495637296e+03,2.239982904527939809e+03,2.345767454058887779e+03,8.719791497720283587e+03,2.888667553322796721e+03,9.484992027282714844e+00,7.649187743663787842e-02,-3.824593424797058105e-01,1.510000000000000000e+02
2.598787131806793695e+03,2.573093729566918228e+03,3.240175429332920430e+03,3.705596005525180772e+03,2.265669742380139724e+03,2.382468098004754665e+03,8.507319222955227815e+03,2.954099149852409028e+03,9.484992027282714844e+00,7.649187743663787842e-02,-3.824593424797058105e-01,1.520000000000000000e+02
2.649358356919708058e+03,2.627761995233275684e+03,3.286431493572912586e+03,3.625855276739630426e+03,2.305072308712130962e+03,2.434001673567522175e+03,8.256101393150145668e+03,3.014140915007505555e+03,9.484992027282714844e+00,7.649187743663787842e-02,-3.824593424797058105e-01,1.530000000000000000e+02
2.635149922383176090e+03,2.610235079203003352e+03,3.260473198732448509e+03,3.633089529459492041e+03,2.289490023918960560e+03,2.414075558787321370e+03,8.195998021303828864e+03,2.958769713503921594e+03,9.484992027282714844e+00,7.649187743663787842e-02,-3.824593424797058105e-01,1.540000000000000000e+02
2.564966985160577678e+03,2.532376902853520733e+03,3.170334927577338931e+03,3.677043507976937690e+03,2.226754244556572303e+03,2.334569242125926849e+03,8.272128620921448601e+03,2.837033307076638266e+03,9.484992027282714844e+00,7.649187743663787842e-02,-3.824593424797058105e-01,1.550000000000000000e+02
2.523791614248803853e+03,2.488116311899641914e+03,3.112207005525212480e+03,3.656591616903073373e+03,2.190422985337591399e+03,2.288819391731975429e+03,8.253937869358931493e+03,2.789962882706548953e+03,9.484992027282714844e+00,7.649187743663787842e-02,-3.442134261131286621e-01,1.560000000000000000e+02
2.554190744192216698e+03,2.522744619405818412e+03,3.138191793866737498e+03,3.559110505203453613e+03,2.218888224073423771e+03,2.322773994335869702e+03,8.052771336208923458e+03,2.856167231191800965e+03,9.484992027282714844e+00,7.649187743663787842e-02,-3.442134261131286621e-01,1.570000000000000000e+02
2.597335856768303074e+03,2.570402457836068152e+03,3.184811962951676833e+03,3.478395639359321649e+03,2.263384893158684463e+03,2.372646233414976450e+03,7.822339694105517992e+03,2.918778429333624445e+03,9.484992027282714844e+00,7.649187743663787842e-02,-3.442134261131286621e-01,1.580000000000000000e+02
2.575303045205655962e+03,2.545649643209522310e+03,3.160622989828047139e+03,3.485554049732696512e+03,2.254405015767430541e+03,2.354047959716159767e+03,7.750944808356885915e+03,2.866839853727201444e+03,9.484992027282714844e+00,7.649187743663787842e-02,-3.442134261131286621e-01,1.590000000000000000e+02
2.499880181135632483e+03,2.461982124278703395e+03,3.072129029978635117e+03,3.530603134407513608e+03,2.195400764633127437e+03,2.278552724617861713e+03,7.813716725188678538e+03,2.747872931827707362e+03,9.484992027282714844e+00,7.649187743663787842e-02,-3.442134261131286621e-01,1.600000000000000000e+02
2.456438644421562003e+03,2.413427853422132102e+03,3.014163550437302547e+03,3.511604019061232975e+03,2.157412894415770552e+03,2.237345734740671105e+03,7.803093258908920689e+03,2.701685419099786486e+03,9.484992027282714844e+00,7.649187743663787842e-02,-3.442134261131286621e-01,1.610000000000000000e+02
2.485557779371062679e+03,2.444910857361664966e+03,3.038273084827609637e+03,3.416018512632675083e+03,2.182159548798259493e+03,2.275015543770999102e+03,7.609789311290223850e+03,2.767827654050782257e+03,9.484992027282714844e+00,7.649187743663787842e-02,-3.442134261131286621e-01,1.620000000000000000e+02
2.526768607284778227e+03,2.490711876090173064e+03,3.081465182193209330e+03,3.338029853263905352e+03,2.224571332425234232e+03,2.327186240039150562e+03,7.377859322601321765e+03,2.831642210345735293e+03,9.484992027282714844e+00,7.649187743663787842e-02,-3.442134261131286621e-01,1.630000000000000000e+02
2.502328145598101855e+03,2.466237240334786293e+03,3.053929014997988816e+03,3.347718837732317297e+03,2.213955802538751414e+03,2.308538947002153236e+03,7.309939560477172563e+03,2.782392655255017416e+03,9.484992027282714844e+00,7.649187743663787842e-02,-3.442134261131286621e-01,1.640000000000000000e+02
2.425084108334621305e+03,2.385663042702242819e+03,2.963714624950785037e+03,3.394070221870366368e+03,2.151458093913124685e+03,2.230528342594739115e+03,7.379361507261692168e+03,2.665393658603475160e+03,9.484992027282714844e+00,7.649187743663787842e-02,-3.442134261131286621e-01,1.650000000000000000e+02
2.381113727420284249e+03,2.342051458122496570e+03,2.905389819348119090e+03,3.376178125340694351e+03,2.108974475168645768e+03,2.185815346517103990e+03,7.370011775022674556e+03,2.618755660863431785e+03,9.484992027282714844e+00,7.649187743663787842e-02,-3.442134261131286621e-01,1.660000000000000000e+02
2.410805988124061059e+03,2.377911585218364507e+03,2.928888604910581307e+03,3.283037353492109105e+03,2.129294161406359308e+03,2.220424788580534369e+03,7.175412154651108722e+03,2.682219169623677772e+03,9.484992027282714844e+00,7.649187743663787842e-02,-3.442134261131286621e-01,1.670000000000000000e+02
2.452519471185725706e+03,2.426002543952131418e+03,2.970229890156468173e+03,3.208330465486451430e+03,2.166223200923848708e+03,2.270671372271068776e+03,6.946365318353171460e+03,2.742077322628949332e+03,9.484992027282714844e+00,7.649187743663787842e-02,-3.442134261131286621e-01,1.680000000000000000e+02
2.427058792324098704e+03,2.401992186045564722e+03,2.939725447349893329e+03,3.220380447797301713e+03,2.149502460146601152e+03,2.252056397187491257e+03,6.882348769245889343e+03,2.688913287586729439e+03,9.484992027282714844e+00,7.649187743663787842e-02,-3.442134261131286621e-01,1.690000000000000000e+02
2.346873818939212924e+03,2.320272908999611900e+03,2.846024036104242441e+03,3.267404010504254074e+03,2.083792578131126902e+03,2.176114405135829657e+03,6.955389092900320975e+03,2.569690902720807571e+03,9.484992027282714844e+00,7.649187743663787842e-02,-3.442134261131286621e-01,1.700000000000000000e+02
2.299301940146680408e+03,2.273522395776890335e+03,2.784862491411328847e+03,3.248750063971868258e+03,2.042438223645214293e+03,2.133709539064292585e+03,6.948993359921543743e+03,2.522799954230060393e+03,9.484992027282714844e+00,7.649187743663787842e-02,-3.442134261131286621e-01,1.710000000000000000e+02
2.326822147598984429e+03,2.305324160423553622e+03,2.807745252500531933e+03,3.153429281206314954e+03,2.065171709115795693e+03,2.169197122286090234e+03,6.757525166433097183e+03,2.586151282172821084e+03,9.484992027282714844e+00,7.649187743663787842e-02,-3.442134261131286621e-01,1.720000000000000000e+02
2.369262957992701104e+03,2.351148199175285754e+03,2.851589768931971776e+03,3.075020105341963244e+03,2.103131431035958940e+03,2.218865082591001283e+03,6.531591677859483752e+03,2.644480472121015737e+03,9.484992027282714844e+00,7.649187743663787842e-02,-3.442134261131286621e-01,1.730000000000000000e+02
2.347406643098209770e+03,2.328066551617015648e+03,2.826620410682596230e+03,3.082702878721341222e+03,2.086949084118715291e+03,2.197654274340409302e+03,6.469427713969431352e+03,2.588796420047510310e+03,9.484992027282714844e+00,7.649187743663787842e-02,-3.442134261131286621e-01,1.740000000000000000e+02
2.272399695538218111e+03,2.249278207265133005e+03,2.740425713393312435e+03,3.126362054600645934e+03,2.022183481141107222e+03,2.115538679958393459e+03,6.543558135641990702e+03,2.466923189138327871e+03,9.484992027282714844e+00,7.649187743663787842e-02,-3.442134261131286621e-01,1.750000000000000000e+02
2.229881282685903898e+03,2.205607100487579373e+03,2.685873919873099112e+03,3.106303346691591287e+03,1.980655585310243623e+03,2.064413072772238593e+03,6.539529489894748622e+03,2.417262793363239780e+03,9.484992027282714844e+00,7.649187743663787842e-02,-3.442134261131286621e-01,1.760000000000000000e+02
2.261094925331059585e+03,2.239358547938272750e+03,2.711018122444420442e+03,3.011052893443329594e+03,2.001537289228119334e+03,2.092540346118425987e+03,6.351997581585508669e+03,2.478010064958728435e+03,9.484992027282714844e+00,7.649187743663787842e-02,-3.442134261131286621e-01,1.770000000000000000e+02
2.305520920804881825e+03,2.284942035178052265e+03,2.752732032079656165e+03,2.933275676325789391e+03,2.038607756884741320e+03,2.138214021103924097e+03,6.130135439337456774e+03,2.534928808826754903e+03,9.484992027282714844e+00,7.649187743663787842e-02,-3.442134261131286621e-01,1.780000000000000000e+02
2.284409292891290534e+03,2.259628486367661480e+03,2.724872465252656184e+03,2.941738044970887131e+03,2.024732054989880908e+03,2.115201562554189877e+03,6.072030298576020868e+03,2.479409923482119211e+03,9.484992027282714844e+00,7.649187743663787842e-02,-3.442134261131286621e-01,1.790000000000000000e+02
2.209738982505864897e+03,2.179074691422039450e+03,2.637312399083767104e+03,2.985990993253963097e+03,1.963938606959187382e+03,2.032800129337960698e+03,6.151019206527103051e+03,2.358523198582750865e+03,9.484992027282714844e+00,7.649187743663787842e-02,-3.442134261131286621e-01,1.800000000000000000e+02
2.167713044542613716e+03,2.135875986500515864e+03,2.582240671718914200e+03,2.965867584349274694e+03,1.925106826566515338e+03,1.983272905410075964e+03,6.151924149507934999e+03,2.309926873322355277e+03,9.484992027282714844e+00,3.824593871831893921e-02,-4.971971809864044189e-01,1.810000000000000000e+02
2.199195516423988920e+03,2.170102534714499598e+03,2.607877400370302894e+03,2.870001363529103401e+03,1.946882029209403299e+03,2.013660418527195361e+03,5.968156476596841458e+03,2.371808648841921240e+03,9.484992027282714844e+00,3.824593871831893921e-02,-4.971971809864044189e-01,1.820000000000000000e+02
2.242280974440357113e+03,2.212791338222690229e+03,2.652101504271592148e+03,2.791562656253224304e+03,1.984467343649733266e+03,2.060823626538151075e+03,5.749201479607866531e+03,2.430545152433172916e+03,9.484992027282714844e+00,3.824593871831893921e-02,-4.971971809864044189e-01,1.830000000000000000e+02
2.217300113633318688e+03,2.181876505980136699e+03,2.626451015741988613e+03,2.799166678223508825e+03,1.971152600389290001e+03,2.039883959983865680e+03,5.693214409721490483e+03,2.378315285447265069e+03,9.484992027282714844e+00,3.824593871831893921e-02,-4.971971809864044189e-01,1.840000000000000000e+02
2.137538507923359248e+03,2.096380205735980780e+03,2.537122474213680562e+03,2.842203442042661663e+03,1.910047126490094342e+03,1.961973125668419925e+03,5.772027220509684412e+03,2.262140206357637908e+03,9.484992027282714844e+00,3.824593871831893921e-02,-4.971971809864044189e-01,1.850000000000000000e+02
2.091706113935659687e+03,2.049893016149902905e+03,2.477311483685597977e+03,2.821884168439263703e+03,1.869783119039715984e+03,1.917956505646099686e+03,5.770801927534864262e+03,2.218160497208613833e+03,9.484992027282714844e+00,3.824593871831893921e-02,-4.971971809864044189e-01,1.860000000000000000e+02
2.121387327445035226e+03,2.081835849564831733e+03,2.499123501247117019e+03,2.728552832506603409e+03,1.889721745236883180e+03,1.952056437270151491e+03,5.586575044630277262e+03,2.282857557548297336e+03,9.484992027282714844e+00,3.824593871831893921e-02,-4.971971809864044189e-01,1.870000000000000000e+02
2.163406853026096087e+03,2.125005924003779455e+03,2.540840017814670773e+03,2.654672840535742125e+03,1.925025668695868262e+03,2.000388750113580045e+03,5.370586474808724233e+03,2.342349994709291877e+03,9.484992027282714844e+00,3.824593871831893921e-02,-4.971971809864044189e-01,1.880000000000000000e+02
2.137546761855300247e+03,2.099108618045828734e+03,2.512366660404342838e+03,2.666374557956172794e+03,1.908306716270983998e+03,1.979016006191940960e+03,5.318042771708789587e+03,2.289680140157191090e+03,9.484992027282714844e+00,3.824593871831893921e-02,-4.971971809864044189e-01,1.890000000000000000e+02
2.057496258100229625e+03,2.019718625673930546e+03,2.421222537592474055e+03,2.712102114000428173e+03,1.843553951100761424e+03,1.900105455067533967e+03,5.398509073471879674e+03,2.172637291662582811e+03,9.484992027282714844e+00,3.824593871831893921e-02,-4.971971809864044189e-01,1.900000000000000000e+02
2.011011259527390393e+03,1.975147111939755177e+03,2.362314909814963357e+03,2.694153440574114484e+03,1.801692543687819125e+03,1.855656850353158916e+03,5.399493211090321893e+03,2.127906749483754993e+03,9.484992027282714844e+00,3.824593871831893921e-02,-4.971971809864044189e-01,1.910000000000000000e+02
2.038347817778499120e+03,2.005353825245594180e+03,2.385740851728777216e+03,2.603348980555936123e+03,1.822436088083381492e+03,1.890455236868863267e+03,5.220299571043478863e+03,2.192336400795035843e+03,9.484992027282714844e+00,3.824593871831893921e-02,-4.971971809864044189e-01,1.920000000000000000e+02
2.078086841782190731e+03,2.047923050713696284e+03,2.427945691875744615e+03,2.531137131569483245e+03,1.858218867526791655e+03,1.939480643939132278e+03,5.010165286906260917e+03,2.251556408562460092e+03,9.484992027282714844e+00,3.824593871831893921e-02,-4.971971809864044189e-01,1.930000000000000000e+02
2.053583018679326415e+03,2.023962263158283349e+03,2.400933151752733920e+03,2.543049960191250648e+03,1.839280210636904485e+03,1.917073244619706202e+03,4.961825306425830604e+03,2.197425402358439442e+03,9.484992027282714844e+00,3.824593871831893921e-02,-4.971971809864044189e-01,1.940000000000000000e+02
1.978809217001962679e+03,1.946716354251521807e+03,2.313468813573511397e+03,2.588370821206295204e+03,1.770364905961930617e+03,1.834879159296835041e+03,5.045750614992933151e+03,2.077332064878168694e+03,9.484992027282714844e+00,3.824593871831893921e-02,-4.971971809864044189e-01,1.950000000000000000e+02
1.937905686663658344e+03,1.903527040573871091e+03,2.257354230323132015e+03,2.570517234729162737e+03,1.724502592529054255e+03,1.785445525587340853e+03,5.050817593007936011e+03,2.028984369278005488e+03,9.484992027282714844e+00,3.824593871831893921e-02,-4.971971809864044189e-01,1.960000000000000000e+02
1.968037451528820611e+03,1.934671018720453958e+03,2.280666091188415521e+03,2.480522446200613558e+03,1.742512339765819888e+03,1.814660622512507416e+03,4.875354245654225451e+03,2.090523592040071435e+03,9.484992027282714844e+00,3.824593871831893921e-02,-4.971971809864044189e-01,1.970000000000000000e+02
2.007560034733012799e+03,1.976503447919036262e+03,2.322558569343170802e+03,2.409038737622309327e+03,1.777649365389814648e+03,1.859124126603190234e+03,4.667851728938688211e+03,2.148035154954316567e+03,9.484992027282714844e+00,3.824593871831893921e-02,-4.971971809864044189e-01,1.980000000000000000e+02
1.980889163037724757e+03,1.949290201369136867e+03,2.297185093324316767e+03,2.420328995035400567e+03,1.761365055397782271e+03,1.834156726956109196e+03,4.622152748446709666e+03,2.093204408253976453e+03,9.484992027282714844e+00,3.824593871831893921e-02,-4.971971809864044189e-01,1.990000000000000000e+02
1.902903755489690866e+03,1.868152995735289323e+03,2.211346582709812537e+03,2.462960724428101912e+03,1.698109931989421511e+03,1.750826616586244654e+03,4.709023907161230454e+03,1.973248189745174841e+03,9.484992027282714844e+00,3.824593871831893921e-02,-4.971971809864044189e-01,2.000000000000000000e+02
1.858571963376822850e+03,1.822064769683768645e+03,2.155440296503890295e+03,2.441118215712125220e+03,1.658456565971080636e+03,1.701077157580625226e+03,4.716244098542275424e+03,1.925820968265566080e+03,9.484992027282714844e+00,3.824593871831893921e-02,-4.971971809864044189e-01,2.010000000000000000e+02
1.886074005030357512e+03,1.850218478601113475e+03,2.179567872804576837e+03,2.347643981094471201e+03,1.681243979612968815e+03,1.731310120458480014e+03,4.542644066763528826e+03,1.989099138663738358e+03,9.484992027282714844e+00,3.824593871831893921e-02,-4.971971809864044189e-01,2.020000000000000000e+02
1.924870848260648017e+03,1.887824582692940794e+03,2.223910843229997681e+03,2.274584641004233617e+03,1.719747663942431245e+03,1.778255966262344828e+03,4.338460780204203729e+03,2.049469718986679254e+03,9.484992027282714844e+00,3.824593871831893921e-02,-4.971971809864044189e-01,2.030000000000000000e+02
1.899830794382281510e+03,1.856399135240460510e+03,2.200311531815218132e+03,2.286625006752316494e+03,1.705487424097644634e+03,1.756271672553444205e+03,4.296852786691330948e+03,1.998872420921203229e+03,9.484992027282714844e+00,3.824593871831893921e-02,-4.971971809864044189e-01,2.040000000000000000e+02
1.824734848548540867e+03,1.773394752976983455e+03,2.114257440937848060e+03,2.332281776594270923e+03,1.642124036484292446e+03,1.675869313412489646e+03,4.386323577718259003e+03,1.883753462616123670e+03,9.484992027282714844e+00,3.824593871831893921e-02,-4.971971809864044189e-01,2.050000000000000000e+02
1.782814752536589822e+03,1.729372416800787960e+03,2.058042928167099035e+03,2.315097218214004442e+03,1.600819987795632187e+03,1.628773632136527795e+03,4.395260874027690988e+03,1.839963387654370308e+03,9.484992027282714844e+00,3.824593871831893921e-02,-4.971971809864044189e-01,2.060000000000000000e+02
1.811932184237541151e+03,1.763545650433992705e+03,2.083027369195632673e+03,2.226095485628142796e+03,1.622851814054206898e+03,1.660175497626597917e+03,4.225227454765094990e+03,1.904648463423940484e+03,9.484992027282714844e+00,3.824593871831893921e-02,-4.971971809864044189e-01,2.070000000000000000e+02
1.852307884989294053e+03,1.809179802509717319e+03,2.128094046196745694e+03,2.155352009636216280e+03,1.662579428733023633e+03,1.706297027035433530e+03,4.026250158840778568e+03,1.965144673206229299e+03,9.484992027282714844e+00,7.649187743663787842e-02,-3.824593424797058105e-01,2.080000000000000000e+02
1.828492204385181140e+03,1.785054365980231523e+03,2.104463457623249269e+03,2.167564334508687352e+03,1.649999484304543785e+03,1.683906602994830337e+03,3.988402072376298747e+03,1.914833279754467640e+03,9.484992027282714844e+00,7.649187743663787842e-02,-3.824593424797058105e-01,2.090000000000000000e+02
1.753226141091792442e+03,1.706991359566076198e+03,2.018891515117175459e+03,2.213186444753971500e+03,1.587403118116289988e+03,1.605943925051688439e+03,4.079367784214286985e+03,1.800087468597108455e+03,9.484992027282714844e+00,7.649187743663787842e-02,-3.824593424797058105e-01,2.100000000000000000e+02
1.710123114173704607e+03,1.664953743203792783e+03,1.963671537453668407e+03,2.196907779338908313e+03,1.545787230082980841e+03,1.562590201618155788e+03,4.090108732993438934e+03,1.755550791931541198e+03,9.484992027282714844e+00,7.649187743663787842e-02,-3.824593424797058105e-01,2.110000000000000000e+02
1.738279860815327993e+03,1.698167873901931898e+03,1.988230113469445314e+03,2.108808951981447990e+03,1.565343915941888099e+03,1.595916276388083133e+03,3.924034798330958438e+03,1.817831409704694806e+03,9.484992027282714844e+00,7.649187743663787842e-02,-3.824593424797058105e-01,2.120000000000000000e+02
1.777855252295772516e+03,1.741445215292638750e+03,2.031049566271410640e+03,2.037994475244550813e+03,1.599103776758405274e+03,1.642210981356906814e+03,3.730274107357011417e+03,1.875210237066141644e+03,9.484992027282714844e+00,7.649187743663787842e-02,-3.824593424797058105e-01,2.130000000000000000e+02
1.752905944196933888e+03,1.715545506003248875e+03,2.005435148238867896e+03,2.049945193123753143e+03,1.579190806715620965e+03,1.620351441724481901e+03,3.697351923403126420e+03,1.823066091926019453e+03,9.484992027282714844e+00,7.649187743663787842e-02,-3.824593424797058105e-01,2.140000000000000000e+02
1.677290535108117638e+03,1.635798600863680576e+03,1.919383223629282384e+03,2.096207567130850293e+03,1.512420307592004747e+03,1.543154994186772228e+03,3.792328591738612886e+03,1.709309780984298186e+03,9.484992027282714844e+00,7.649187743663787842e-02,-3.824593424797058105e-01,2.150000000000000000e+02
1.635785945793816154e+03,1.590789205282698049e+03,1.864027109820021906e+03,2.081142104189816109e+03,1.471013037357925668e+03,1.498906899316147701e+03,3.806061076061741005e+03,1.667650591809958541e+03,9.484992027282714844e+00,7.649187743663787842e-02,-3.824593424797058105e-01,2.160000000000000000e+02
1.665868929549329096e+03,1.621516118603877430e+03,1.887459980709842512e+03,1.994257631805633082e+03,1.492504324195444269e+03,1.529771437802663968e+03,3.642101029583438503e+03,1.731727272902653340e+03,9.484992027282714844e+00,7.649187743663787842e-02,-3.824593424797058105e-01,2.170000000000000000e+02
1.705045323581099638e+03,1.665154859515155067e+03,1.928315645110791593e+03,1.925475933103387433e+03,1.528796376644783095e+03,1.574552937887010103e+03,3.449984205842260963e+03,1.788561026437585042e+03,9.484992027282714844e+00,7.649187743663787842e-02,-3.824593424797058105e-01,2.180000000000000000e+02
1.677733546319604557e+03,1.640007295789284626e+03,1.900883226001541743e+03,1.941067454404811997e+03,1.513349408199282379e+03,1.553904023582594846e+03,3.418598205452131879e+03,1.735613298112290522e+03,9.484992027282714844e+00,7.649187743663787842e-02,-3.824593424797058105e-01,2.190000000000000000e+02
1.600321651863015632e+03,1.557563075989837671e+03,1.814395495820563838e+03,1.991206879931553885e+03,1.451924441563074424e+03,1.479750713514937615e+03,3.515548458527536241e+03,1.622655312932570723e+03,9.484992027282714844e+00,7.649187743663787842e-02,-3.824593424797058105e-01,2.200000000000000000e+02
1.557744535956955588e+03,1.508460656566415992e+03,1.761033304873537872e+03,1.978039168751649868e+03,1.412963516942244496e+03,1.438012153242163777e+03,3.532628033248149222e+03,1.582352445266889617e+03,9.484992027282714844e+00,7.649187743663787842e-02,-3.824593424797058105e-01,2.210000000000000000e+02
1.585275567060084995e+03,1.538708823855622541e+03,1.788354988996285329e+03,1.891035161997678642e+03,1.432945991600682419e+03,1.469262978993101342e+03,3.373504350099772182e+03,1.647128953805802212e+03,9.484992027282714844e+00,7.649187743663787842e-02,-3.824593424797058105e-01,2.220000000000000000e+02
1.620641739884074241e+03,1.585352568196020684e+03,1.832770187902965517e+03,1.821984614998529651e+03,1.466540004057919077e+03,1.512365584155979377e+03,3.186222508593005841e+03,1.704933240699130465e+03,9.484992027282714844e+00,7.649187743663787842e-02,-3.824593424797058105e-01,2.230000000000000000e+02
1.591678885846798494e+03,1.563112400868725672e+03,1.807234702521843474e+03,1.837986990130853656e+03,1.449167613194728119e+03,1.488824558241960858e+03,3.158344212648331904e+03,1.653690306080197161e+03,9.484992027282714844e+00,7.649187743663787842e-02,-3.824593424797058105e-01,2.240000000000000000e+02
1.516557874413540958e+03,1.483374477080454199e+03,1.721981152606713977e+03,1.888447352720353592e+03,1.386333615768383197e+03,1.411453971507120059e+03,3.257981744929926208e+03,1.541422836329916663e+03,9.484992027282714844e+00,7.649187743663787842e-02,-3.824593424797058105e-01,2.250000000000000000e+02
1.478507674141487769e+03,1.438308104396916860e+03,1.670260616426446859e+03,1.875372307677188928e+03,1.346723382050579175e+03,1.367335103160084827e+03,3.277944761620295139e+03,1.499764464056579300e+03,9.484992027282714844e+00,7.649187743663787842e-02,-3.824593424797058105e-01,2.260000000000000000e+02
1.511228431179443305e+03,1.471493187778915399e+03,1.698979261948333487e+03,1.789203757662378848e+03,1.367537287965272526e+03,1.398122014137092719e+03,3.121779151674616060e+03,1.562645718490366107e+03,9.484992027282714844e+00,7.649187743663787842e-02,-3.824593424797058105e-01,2.270000000000000000e+02
1.552363148371412990e+03,1.516989899896344241e+03,1.744099008452894168e+03,1.721816688803518446e+03,1.402602939431103096e+03,1.442431597392129333e+03,2.937214796077106257e+03,1.619680825928289551e+03,9.484992027282714844e+00,7.649187743663787842e-02,-3.824593424797058105e-01,2.280000000000000000e+02
1.528101387044336207e+03,1.492050978724673314e+03,1.719844178939448966e+03,1.739118573275044582e+03,1.386176819963658545e+03,1.420460064578912352e+03,2.912364392609548759e+03,1.569089455014420082e+03,9.484992027282714844e+00,7.649187743663787842e-02,-3.824593424797058105e-01,2.290000000000000000e+02
1.453425201247196128e+03,1.412247017306586258e+03,1.637001983517375265e+03,1.790061219916463870e+03,1.324138497141876996e+03,1.344392333504334147e+03,3.015732416035408733e+03,1.458824161001503853e+03,9.484992027282714844e+00,7.649187743663787842e-02,-3.824593424797058105e-01,2.300000000000000000e+02
1.411531924011163937e+03,1.368729651006782660e+03,1.586853966269301964e+03,1.777595100211385216e+03,1.285365449478900700e+03,1.301358579303524039e+03,3.039746080085725225e+03,1.419742676682338242e+03,9.484992027282714844e+00,7.649187743663787842e-02,-3.824593424797058105e-01,2.310000000000000000e+02
1.440518669845630029e+03,1.401873713502242936e+03,1.614715124817678770e+03,1.692675056682405739e+03,1.305780362718246124e+03,1.332229295126690431e+03,2.887718487110301794e+03,1.483522042743867587e+03,9.484992027282714844e+00,7.649187743663787842e-02,-3.824593424797058105e-01,2.320000000000000000e+02
1.481800006145163934e+03,1.446731489832625357e+03,1.658238539792240317e+03,1.626114750912598538e+03,1.338859274393649230e+03,1.374692614823622080e+03,2.707138251913688691e+03,1.538532244329976038e+03,9.484992027282714844e+00,7.649187743663787842e-02,-3.824593424797058105e-01,2.330000000000000000e+02
1.460779014965224633e+03,1.423101711704439367e+03,1.634231023662592634e+03,1.642577309144880928e+03,1.320475991771947065e+03,1.349912500148757317e+03,2.684935842242661238e+03,1.484977109139250388e+03,9.484992027282714844e+00,7.649187743663787842e-02,-3.824593424797058105e-01,2.340000000000000000e+02
1.389279041459561995e+03,1.345151487933479075e+03,1.553110620766353804e+03,1.691591113672619940e+03,1.257604940761674243e+03,1.272101411415630992e+03,2.789004227196217471e+03,1.373436316656709550e+03,9.484992027282714844e+00,7.649187743663787842e-02,-3.824593424797058105e-01,2.350000000000000000e+02
1.348912074173059409e+03,1.301519421882082497e+03,1.503673219778387647e+03,1.678374014102509591e+03,1.219083424683450630e+03,1.229063769364754080e+03,2.813702940290206243e+03,1.335107605002413493e+03,9.484992027282714844e+00,7.649187743663787842e-02,-3.824593424797058105e-01,2.360000000000000000e+02
1.378138842736605511e+03,1.333882506656930673e+03,1.530475236140436209e+03,1.595312713532435737e+03,1.241773677880889409e+03,1.261347743424727469e+03,2.664740605908647922e+03,1.401107697528400422e+03,9.484992027282714844e+00,7.649187743663787842e-02,-3.824593424797058105e-01,2.370000000000000000e+02
1.418778246114882677e+03,1.379453488046739039e+03,1.573066352429442304e+03,1.531974837819822824e+03,1.280203349057588639e+03,1.306778675202561317e+03,2.489044485889508906e+03,1.459804650225873047e+03,9.484992027282714844e+00,7.649187743663787842e-02,-3.824593424797058105e-01,2.380000000000000000e+02
1.396468340449494008e+03,1.356864984000513687e+03,1.549901704962941949e+03,1.550792381108895825e+03,1.268393219418817353e+03,1.286131451248424128e+03,2.471132027217812720e+03,1.410431156763382205e+03,9.599730491638183594e+00,7.649187743663787842e-02,-3.824593424797058105e-01,2.390000000000000000e+02
1.324094373773170446e+03,1.278815439605614756e+03,1.470545757836497614e+03,1.600983878475549318e+03,1.209810760482507249e+03,1.211877297904199622e+03,2.577991992324027706e+03,1.301694750710692460e+03,9.599730491638183594e+00,7.649187743663787842e-02,-3.824593424797058105e-01,2.400000000000000000e+02
1.283965450144667557e+03,1.235332257011908496e+03,1.422127201811527357e+03,1.589062466409255649e+03,1.172179021065148390e+03,1.170969327084059842e+03,2.604618730827965919e+03,1.264777819811443806e+03,9.599730491638183594e+00,7.649187743663787842e-02,-3.824593424797058105e-01,2.410000000000000000e+02
1.312851245846925849e+03,1.268879335163453106e+03,1.449695812364644553e+03,1.507913795777269115e+03,1.193626538839538625e+03,1.205305316146746009e+03,2.457232595400939317e+03,1.332419321577564915e+03,9.599730491638183594e+00,7.649187743663787842e-02,-3.824593424797058105e-01,2.420000000000000000e+02
1.350609313996663332e+03,1.314571512097052619e+03,1.494549917917351650e+03,1.446714725906756939e+03,1.229481300057745102e+03,1.253746030806253657e+03,2.283521752660048151e+03,1.393147653455430827e+03,9.599730491638183594e+00,7.649187743663787842e-02,-3.824593424797058105e-01,2.430000000000000000e+02
1.324806146168151827e+03,1.290170354879238403e+03,1.474406053226754011e+03,1.467931681794738324e+03,1.214162813090459167e+03,1.235953146669709895e+03,2.269101023796151821e+03,1.345051044570782778e+03,9.599730491638183594e+00,7.649187743663787842e-02,-3.824593424797058105e-01,2.440000000000000000e+02
1.252391502119134202e+03,1.210824249953057915e+03,1.396003256742408666e+03,1.520631531837623697e+03,1.152616347199502343e+03,1.163030248718945586e+03,2.380599524633980764e+03,1.236929267218007681e+03,9.599730491638183594e+00,7.649187743663787842e-02,-3.824593424797058105e-01,2.450000000000000000e+02
1.215730396219424620e+03,1.168148726193072434e+03,1.346386842245059597e+03,1.510293369878632802e+03,1.113722310053946785e+03,1.121837837774894069e+03,2.411448152026006937e+03,1.200478230199947575e+03,9.599730491638183594e+00,7.649187743663787842e-02,-3.824593424797058105e-01,2.460000000000000000e+02
1.247610016445125439e+03,1.203086250220314469e+03,1.373752965949473946e+03,1.429464447366171953e+03,1.134764874292994136e+03,1.154375794088831753e+03,2.267721924040593876e+03,1.267357801224586183e+03,9.599730491638183594e+00,7.649187743663787842e-02,-3.824593424797058105e-01,2.470000000000000000e+02
1.286161991861515162e+03,1.249548196954528976e+03,1.420314069623193063e+03,1.368313623395039940e+03,1.169921181837278709e+03,1.199539889271181892e+03,2.098073342792078620e+03,1.325445965953919767e+03,9.599730491638183594e+00,7.649187743663787842e-02,-3.824593424797058105e-01,2.480000000000000000e+02
1.261093417499253519e+03,1.226503324435169816e+03,1.401116612717021781e+03,1.389691153012901850e+03,1.154079305473048407e+03,1.178248163754985399e+03,2.087481534270378688e+03,1.274883961613615611e+03,9.599730491638183594e+00,7.649187743663787842e-02,-3.824593424797058105e-01,2.490000000000000000e+02
1.190781159113229478e+03,1.150034662191628740e+03,1.322084742530634685e+03,1.442038553826991119e+03,1.093019105221501377e+03,1.103336680950757000e+03,2.201174012492001566e+03,1.166395976443717700e+03,9.599730491638183594e+00,7.649187743663787842e-02,-3.824593424797058105e-01,2.500000000000000000e+02
1.156998094973609113e+03,1.110068401915936192e+03,1.272851713693036800e+03,1.431162079178140630e+03,1.055323332843178832e+03,1.061601359124853843e+03,2.233281870835924565e+03,1.130457076122904255e+03,9.599730491638183594e+00,7.649187743663787842e-02,-3.824593424797058105e-01,2.510000000000000000e+02
1.192760858949860449e+03,1.145040191986713580e+03,1.302274164276463125e+03,1.350767214667801454e+03,1.077823011882046558e+03,1.093552214143935089e+03,2.091385525442830840e+03,1.197037135880049391e+03,9.599730491638183594e+00,7.649187743663787842e-02,-3.824593424797058105e-01,2.520000000000000000e+02
1.236492295796017061e+03,1.189092514500888683e+03,1.350020162012719084e+03,1.290899036355588578e+03,1.115071273880749686e+03,1.137530594581035984e+03,1.923550841384292653e+03,1.255055822805794378e+03,9.599730491638183594e+00,7.649187743663787842e-02,-3.824593424797058105e-01,2.530000000000000000e+02
1.215284265711734406e+03,1.164466601393850397e+03,1.330946207627209333e+03,1.313223015159490387e+03,1.102313804398499087e+03,1.115057308878858748e+03,1.913753777232268476e+03,1.206066016278622556e+03,9.599730491638183594e+00,7.649187743663787842e-02,-3.824593424797058105e-01,2.540000000000000000e+02
1.144370663640167550e+03,1.089193293645758786e+03,1.254205135484814491e+03,1.365732119641572353e+03,1.044918497639499037e+03,1.039232758548669153e+03,2.028563533151775118e+03,1.099398384612743939e+03,9.599730491638183594e+00,7.649187743663787842e-02,-3.824593424797058105e-01,2.550000000000000000e+02
1.106676526677205402e+03,1.050931589437760522e+03,1.209924533691198121e+03,1.354367121099728138e+03,1.010536164729584925e+03,9.968157775939362182e+02,2.063686995221354664e+03,1.063412511950691623e+03,9.599730491638183594e+00,7.649187743663787842e-02,-3.824593424797058105e-01,2.560000000000000000e+02
1.139460315606401309e+03,1.085907054790907750e+03,1.242891526905712453e+03,1.272825848506832699e+03,1.034931763652616610e+03,1.028997938237937888e+03,1.925682120892164676e+03,1.128716248090165209e+03,9.599730491638183594e+00,7.649187743663787842e-02,-3.824593424797058105e-01,2.570000000000000000e+02
1.183184468751866007e+03,1.130565940996936661e+03,1.290214468354386554e+03,1.211814763831664095e+03,1.072361410280754171e+03,1.075120756599109882e+03,1.761023434473047018e+03,1.186648100730131773e+03,9.599730491638183594e+00,7.649187743663787842e-02,-3.824593424797058105e-01,2.580000000000000000e+02
1.163491382373909801e+03,1.109407153741722141e+03,1.268907637879395224e+03,1.234381698449422402e+03,1.059528950228002032e+03,1.056812951770240034e+03,1.754099136931818066e+03,1.139892989760402997e+03,9.599730491638183594e+00,7.649187743663787842e-02,-3.824593424797058105e-01,2.590000000000000000e+02
1.093612937153291568e+03,1.037309859420167413e+03,1.190640765563159221e+03,1.289023891552478744e+03,1.003459769866864008e+03,9.861699950639558665e+02,1.872288031854333894e+03,1.037326380000085919e+03,9.446745872497558594e+00,7.649187743663787842e-02,-3.442134261131286621e-01,2.600000000000000000e+02
1.055500336798995704e+03,9.989319231098243108e+02,1.144935539104462805e+03,1.280846394085405336e+03,9.708496308602843783e+02,9.485331486722116097e+02,1.910803812153233594e+03,1.006734478966105598e+03,9.446745872497558594e+00,7.649187743663787842e-02,-3.442134261131286621e-01,2.610000000000000000e+02
1.085768768595862639e+03,1.034088087806533622e+03,1.175403844925056546e+03,1.202417252588822521e+03,9.949867528806826158e+02,9.841892709751773509e+02,1.775982102700090763e+03,1.078089585258838270e+03,9.446745872497558594e+00,7.649187743663787842e-02,-3.442134261131286621e-01,2.620000000000000000e+02
1.124862689904191939e+03,1.082949548176286953e+03,1.220243806990983103e+03,1.143490262249311854e+03,1.030004611569336703e+03,1.032632783530109009e+03,1.615139327971573948e+03,1.141268903353981841e+03,9.446745872497558594e+00,7.649187743663787842e-02,-3.442134261131286621e-01,2.630000000000000000e+02
1.100283114545747594e+03,1.066326755552179748e+03,1.198243715650956801e+03,1.166630376520310165e+03,1.014648842106407756e+03,1.016110960801808687e+03,1.612607275371628930e+03,1.097248597703617634e+03,9.446745872497558594e+00,7.649187743663787842e-02,-3.442134261131286621e-01,2.640000000000000000e+02
1.027865364649886033e+03,9.943192762812286674e+02,1.121034035188904454e+03,1.221030573458967410e+03,9.565646454818052007e+02,9.467672647821946157e+02,1.734373715139541673e+03,9.945156054302879056e+02,9.446745872497558594e+00,7.649187743663787842e-02,-3.442134261131286621e-01,2.650000000000000000e+02
9.897542815749511647e+02,9.533905525638001563e+02,1.077080642719562093e+03,1.213062200642189055e+03,9.217955725371539302e+02,9.096650506232490443e+02,1.775239691976938047e+03,9.623498819550040935e+02,9.446745872497558594e+00,7.649187743663787842e-02,-3.442134261131286621e-01,2.660000000000000000e+02
1.020226043966393263e+03,9.863410069756519079e+02,1.109996259587504028e+03,1.135466079848556546e+03,9.445559367667228798e+02,9.453098785739348386e+02,1.642738161239132751e+03,1.032731100070019238e+03,9.446745872497558594e+00,7.649187743663787842e-02,-3.442134261131286621e-01,2.670000000000000000e+02
1.058795375946085187e+03,1.031958729823814792e+03,1.158543831371860506e+03,1.077143617986484969e+03,9.801202535568481835e+02,9.932784004203840595e+02,1.484707851603483505e+03,1.096018386976027614e+03,9.446745872497558594e+00,7.649187743663787842e-02,-3.442134261131286621e-01,2.680000000000000000e+02
1.034902832766230858e+03,1.011415585797538370e+03,1.140605369430026258e+03,1.100299939737142267e+03,9.654061253535655851e+02,9.749558276900843339e+02,1.484284556449336378e+03,1.051886440208756540e+03,9.446745872497558594e+00,7.649187743663787842e-02,-3.442134261131286621e-01,2.690000000000000000e+02
9.653044379656712408e+02,9.403320241902110865e+02,1.065853185830563234e+03,1.154598594827753914e+03,9.055886445393061877e+02,9.021115113279411162e+02,1.606626952886639629e+03,9.477778535509005451e+02,9.446745872497558594e+00,7.649187743663787842e-02,-3.442134261131286621e-01,2.700000000000000000e+02
9.299764544846184435e+02,9.072872609986807220e+02,1.022298123193208085e+03,1.146998619607300498e+03,8.677691693342367216e+02,8.613151335990733060e+02,1.647851275498658651e+03,9.135220230173981690e+02,9.446745872497558594e+00,7.649187743663787842e-02,-3.442134261131286621e-01,2.710000000000000000e+02
9.618582388831637218e+02,9.494518763269952615e+02,1.055001721915788949e+03,1.070609189004979271e+03,8.886828235085013148e+02,8.945276396018471132e+02,1.517459186886557291e+03,9.818404964442761411e+02,9.446745872497558594e+00,7.649187743663787842e-02,-3.442134261131286621e-01,2.720000000000000000e+02
1.002316220477890965e+03,1.000498709527360916e+03,1.103763364059777814e+03,1.014156749715359183e+03,9.232705718699326098e+02,9.405186118131350668e+02,1.363193174751038896e+03,1.042783426141393647e+03,9.446745872497558594e+00,7.649187743663787842e-02,-3.442134261131286621e-01,2.730000000000000000e+02
9.821868726880984468e+02,9.822582810695603257e+02,1.086258245898343375e+03,1.038961241568957121e+03,9.068936615446182259e+02,9.196553929117562802e+02,1.366203532496179832e+03,9.961797619478711567e+02,9.446745872497558594e+00,7.649187743663787842e-02,-3.442134261131286621e-01,2.740000000000000000e+02
9.170255238750560238e+02,9.115756611021042772e+02,1.012188057367406145e+03,1.094007834744512365e+03,8.456415907201862865e+02,8.454230600805403810e+02,1.490652135029369674e+03,8.910058998796703236e+02,9.446745872497558594e+00,7.649187743663787842e-02,-3.442134261131286621e-01,2.750000000000000000e+02
8.859804259203974652e+02,8.758387852108935476e+02,9.699114706194322935e+02,1.086550132145497628e+03,8.083982894375112664e+02,8.067798320272158890e+02,1.533673923348640528e+03,8.576041929645434720e+02,9.446745872497558594e+00,7.649187743663787842e-02,-3.442134261131286621e-01,2.760000000000000000e+02
9.221891781957820058e+02,9.126013248295766971e+02,1.003659383007445285e+03,1.010271905968784267e+03,8.314566430846789444e+02,8.448181346574656345e+02,1.405497382869089051e+03,9.270072299442635995e+02,9.446745872497558594e+00,7.649187743663787842e-02,-3.442134261131286621e-01,2.770000000000000000e+02
9.652776108202524483e+02,9.584446122098088381e+02,1.052000135996779136e+03,9.541138404127759713e+02,8.686793708764762414e+02,8.955420975579327205e+02,1.252970312170953548e+03,9.885518505207037379e+02,9.446745872497558594e+00,7.649187743663787842e-02,-3.442134261131286621e-01,2.780000000000000000e+02
9.437255160842687474e+02,9.366096486274091149e+02,1.033232887398164166e+03,9.795565178401138837e+02,8.559634148297354841e+02,8.787801959856624308e+02,1.256457216090504517e+03,9.438572704758644250e+02,9.446745872497558594e+00,7.649187743663787842e-02,-3.442134261131286621e-01,2.790000000000000000e+02
8.744255148513802851e+02,8.629780769495100685e+02,9.587305961641031899e+02,1.035533671186938591e+03,7.996590423544057558e+02,8.087442238662752061e+02,1.381237977502652939e+03,8.422854201047975948e+02,9.446745872497558594e+00,7.649187743663787842e-02,-3.442134261131286621e-01,2.800000000000000000e+02
8.398966215450636810e+02,8.244825189090279309e+02,9.169370622144597291e+02,1.028715723360470292e+03,7.668975278558427817e+02,7.725913703551850631e+02,1.425219088613608619e+03,8.111835223391535692e+02,9.446745872497558594e+00,7.649187743663787842e-02,-3.442134261131286621e-01,2.810000000000000000e+02
8.740843538441222336e+02,8.595545566775599582e+02,9.511517776089731342e+02,9.525774010384411667e+02,7.923252404544819001e+02,8.089347861992555409e+02,1.298140357816715550e+03,8.798052338500328915e+02,9.446745872497558594e+00,7.649187743663787842e-02,-3.442134261131286621e-01,2.820000000000000000e+02
9.162885259715494612e+02,9.056254664489388233e+02,1.000323891961925256e+03,8.966566340478530037e+02,8.301798379918109276e+02,8.556839646627176990e+02,1.146428279020663467e+03,9.400560724350834789e+02,9.446745872497558594e+00,7.649187743663787842e-02,-3.442134261131286621e-01,2.830000000000000000e+02
8.964574344368957100e+02,8.861477451070823008e+02,9.834669145606094389e+02,9.223811858402041253e+02,8.177726108674833085e+02,8.373916676300268591e+02,1.150855873746542784e+03,8.965664683000341029e+02,9.446745872497558594e+00,7.649187743663787842e-02,-3.442134261131286621e-01,2.840000000000000000e+02
8.315072035094708554e+02,8.161879242604736646e+02,9.107409345120977378e+02,9.776547626421597670e+02,7.628801508692722564e+02,7.694241397306104773e+02,1.276430940342801478e+03,7.985102353854654211e+02,9.523238182067871094e+00,7.649187743663787842e-02,-3.442134261131286621e-01,2.850000000000000000e+02
8.000760580604073766e+02,7.804341671244146710e+02,8.690437149375902663e+02,9.693459834141685860e+02,7.336015573132826830e+02,7.361817736498924205e+02,1.321011706695811881e+03,7.717247724336157262e+02,9.523238182067871094e+00,7.649187743663787842e-02,-3.442134261131286621e-01,2.860000000000000000e+02
8.332593751259282726e+02,8.153055655291482253e+02,9.025815331783542206e+02,8.929199289777025115e+02,7.636108664446055627e+02,7.748126694861930446e+02,1.195414594053341716e+03,8.444756400114893040e+02,9.523238182067871094e+00,7.649187743663787842e-02,-3.442134261131286621e-01,2.870000000000000000e+02
8.720336520764722081e+02,8.589695240720375295e+02,9.520782373347428802e+02,8.388509434895349841e+02,8.041852208430518658e+02,8.235198814511513774e+02,1.046971659870272561e+03,9.070356504015217070e+02,9.523238182067871094e+00,7.649187743663787842e-02,-3.442134261131286621e-01,2.880000000000000000e+02
8.487334170070389519e+02,8.377205049134663568e+02,9.361639755310843611e+02,8.670395398145628860e+02,7.908880828237943206e+02,8.051603689415132976e+02,1.055312656973474077e+03,8.624373007705926284e+02,9.523238182067871094e+00,7.649187743663787842e-02,-3.442134261131286621e-01,2.890000000000000000e+02
7.811155315984797198e+02,7.682997244652015070e+02,8.637071453518328781e+02,9.238254885085407295e+02,7.326899569226934545e+02,7.328525503006421786e+02,1.183575710786037234e+03,7.609187024647271755e+02,9.523238182067871094e+00,7.649187743663787842e-02,-3.442134261131286621e-01,2.900000000000000000e+02
7.497383080803301709e+02,7.347815499750395247e+02,8.221691403987133526e+02,9.163193256569466030e+02,6.994556894642410043e+02,6.930150788290466153e+02,1.229554246740433882e+03,7.311048999925351382e+02,9.523238182067871094e+00,7.649187743663787842e-02,-3.442134261131286621e-01,2.910000000000000000e+02
7.873824721691562445e+02,7.726073113478996675e+02,8.568604514719554572e+02,8.404833441915834555e+02,7.256782138485432370e+02,7.275018711251250352e+02,1.105297437183722650e+03,8.024010874081686779e+02,9.523238182067871094e+00,7.649187743663787842e-02,-3.442134261131286621e-01,2.920000000000000000e+02
8.320342156968035852e+02,8.196562226432688476e+02,9.076249047523506306e+02,7.862509205370588461e+02,7.639188702925457619e+02,7.761999795280571561e+02,9.585098036115341529e+02,8.645667125151558139e+02,9.523238182067871094e+00,7.649187743663787842e-02,-3.442134261131286621e-01,2.930000000000000000e+02
8.112425046951575496e+02,8.014642229521850822e+02,8.917819861904936261e+02,8.135618631348588679e+02,7.509220001056310139e+02,7.605657016068871599e+02,9.682436858552064223e+02,8.206493793972840649e+02,9.523238182067871094e+00,7.649187743663787842e-02,-3.442134261131286621e-01,2.940000000000000000e+02
7.427590154212157358e+02,7.335701011980600015e+02,8.189957166848944325e+02,8.706804414980761067e+02,6.940955431928887265e+02,6.928646562081339653e+02,1.097539970823465410e+03,7.209740828146295826e+02,9.523238182067871094e+00,7.649187743663787842e-02,-3.442134261131286621e-01,2.950000000000000000e+02
7.100551493745588232e+02,7.003750005165893526e+02,7.779347558769004536e+02,8.665113528270812822e+02,6.604348915861264686e+02,6.584653128145473602e+02,1.144903153130617284e+03,6.927807725605998712e+02,9.523238182067871094e+00,7.649187743663787842e-02,-3.442134261131286621e-01,2.960000000000000000e+02
7.460128479729428363e+02,7.389948250486195320e+02,8.130181684180970478e+02,7.961629091114191397e+02,6.845434218063164735e+02,6.960197894599114079e+02,1.023072179877286544e+03,7.637973287468594208e+02,9.523238182067871094e+00,7.649187743663787842e-02,-3.442134261131286621e-01,2.970000000000000000e+02
7.878483503185489099e+02,7.875114473986614030e+02,8.629679939098823525e+02,7.469775916741600668e+02,7.215171469306296785e+02,7.435139921379595762e+02,8.796719192643904535e+02,8.240048056293308036e+02,9.523238182067871094e+00,7.649187743663787842e-02,-3.442134261131286621e-01,2.980000000000000000e+02
7.654471708105993457e+02,7.699616749615306617e+02,8.463788139497082739e+02,7.774060148004609800e+02,7.088095752140252443e+02,7.252017508450735477e+02,8.929257840408936318e+02,7.782661290301584813e+02,9.523238182067871094e+00,7.649187743663787842e-02,-3.442134261131286621e-01,2.990000000000000000e+02
6.983695136303394975e+02,7.015456919280659349e+02,7.746192755481533823e+02,8.358655232714554586e+02,6.525723567324239411e+02,6.570594593471687404e+02,1.025067071400997520e+03,6.781847989854504704e+02,9.523238182067871094e+00,7.649187743663787842e-02,-3.442134261131286621e-01,3.000000000000000000e+02
6.676994222600260400e+02,6.676734167039321619e+02,7.355409782384449500e+02,8.314900062543383683e+02,6.195610331078678428e+02,6.242022508742738864e+02,1.075003718613763340e+03,6.506598969626102189e+02,9.523238182067871094e+00,7.649187743663787842e-02,-3.442134261131286621e-01,3.010000000000000000e+02
7.043117397692512895e+02,7.051025805384888372e+02,7.717206757092462794e+02,7.595020286495127948e+02,6.447524874819646357e+02,6.628650476105322014e+02,9.562268058487679809e+02,7.225395601215095667e+02,9.523238182067871094e+00,7.649187743663787842e-02,-3.442134261131286621e-01,3.020000000000000000e+02
7.474333376469294308e+02,7.507205526655598078e+02,8.217884710727557831e+02,7.082991462038844475e+02,6.823235463731762138e+02,7.103068631161731901e+02,8.156818706642879988e+02,7.838660204433363106e+02,9.523238182067871094e+00,7.649187743663787842e-02,-3.442134261131286621e-01,3.030000000000000000e+02
7.284066569645110576e+02,7.298132557005374110e+02,8.051755304096404871e+02,7.376127627193345688e+02,6.692085262032560422e+02,6.912566718554735417e+02,8.299290962968807435e+02,7.399223815535733593e+02,9.523238182067871094e+00,7.649187743663787842e-02,-3.442134261131286621e-01,3.040000000000000000e+02
6.644991618144777021e+02,6.605004207664424030e+02,7.333749917667846603e+02,7.957511142513249069e+02,6.132330029499680677e+02,6.217866781551929307e+02,9.609674683148041368e+02,6.414985894261117210e+02,9.523238182067871094e+00,7.649187743663787842e-02,-3.442134261131286621e-01,3.050000000000000000e+02
6.349864198552058951e+02,6.286309848462769878e+02,6.945979083229140087e+02,7.909629472999258724e+02,5.825188459181044891e+02,5.876161968983215047e+02,1.009276600060140481e+03,6.143797939284959284e+02,9.523238182067871094e+00,7.649187743663787842e-02,-3.442134261131286621e-01,3.060000000000000000e+02
6.719604703693221381e+02,6.684971893826659652e+02,7.325345628677168861e+02,7.183010918142717856e+02,6.110432154085719958e+02,6.261494766391551821e+02,8.894873670955421403e+02,6.863445929682093265e+02,9.523238182067871094e+00,7.649187743663787842e-02,-3.442134261131286621e-01,3.070000000000000000e+02
7.154810662076124572e+02,7.150834342023590580e+02,7.859507392444538709e+02,6.661287693872218370e+02,6.519151352319750004e+02,6.745829848385765217e+02,7.483591274952850654e+02,7.493489993121547741e+02,9.523238182067871094e+00,7.649187743663787842e-02,-3.442134261131286621e-01,3.080000000000000000e+02
6.962171855361193593e+02,6.938351300626964075e+02,7.732559787978534587e+02,6.936577550404763315e+02,6.424564359278338088e+02,6.565856792866325122e+02,7.625471568331122398e+02,7.083923020166730566e+02,9.523238182067871094e+00,7.649187743663787842e-02,-3.442134261131286621e-01,3.090000000000000000e+02
6.322941675705369562e+02,6.236708516817998316e+02,7.056821805337349360e+02,7.498232212682414684e+02,5.901948681753601704e+02,5.879963113382909796e+02,8.947696793340583099e+02,6.124298355609680584e+02,9.523238182067871094e+00,7.649187743663787842e-02,-3.442134261131286621e-01,3.100000000000000000e+02
6.048468170931482746e+02,5.908324108105953201e+02,6.714883407836423430e+02,7.450342035692701756e+02,5.618085854953496892e+02,5.546276409122183395e+02,9.464876313303102506e+02,5.869297777437168406e+02,9.523238182067871094e+00,7.649187743663787842e-02,-3.442134261131286621e-01,3.110000000000000000e+02
6.451532669838343281e+02,6.298445652172667906e+02,7.126048208278625680e+02,6.749778202474881255e+02,5.912377116593233950e+02,5.931427782916543947e+02,8.315279168438501074e+02,6.600868449314002646e+02,9.523238182067871094e+00,1.529837548732757568e-01,-4.589512646198272705e-01,3.120000000000000000e+02
6.908703333705561818e+02,6.763907081357610878e+02,7.656599653742232476e+02,6.257563996573699114e+02,6.326715103499554971e+02,6.405110391184061882e+02,6.951001240703262738e+02,7.223668928490260441e+02,9.523238182067871094e+00,1.529837548732757568e-01,-4.589512646198272705e-01,3.130000000000000000e+02
6.727186639937681321e+02,6.571381427071028156e+02,7.499599549911035865e+02,6.545922293721887399e+02,6.226952586922488990e+02,6.214758215313631808e+02,7.123064722375129350e+02,6.772584596825945482e+02,9.523238182067871094e+00,1.529837548732757568e-01,-4.589512646198272705e-01,3.140000000000000000e+02
6.103310686739969242e+02,5.912073765104833001e+02,6.796201868391908647e+02,7.108298322443151847e+02,5.673052415825732169e+02,5.521736384979813010e+02,8.452295872010799940e+02,5.756629286029456125e+02,9.523238182067871094e+00,1.529837548732757568e-01,-4.589512646198272705e-01,3.150000000000000000e+02
5.841431785095483065e+02,5.627401714579063992e+02,6.436709572617546655e+02,7.057707059345229936e+02,5.343886611422021815e+02,5.176055592395932763e+02,8.954795789784038789e+02,5.466464476816254319e+02,9.523238182067871094e+00,1.529837548732757568e-01,-4.589512646198272705e-01,3.160000000000000000e+02
6.236656293869746150e+02,6.040664368747020490e+02,6.824798529878680711e+02,6.354067587623831059e+02,5.605451569513352297e+02,5.551841367015003925e+02,7.788358952793205390e+02,6.194140835148828046e+02,9.523238182067871094e+00,1.529837548732757568e-01,-4.589512646198272705e-01,3.170000000000000000e+02
6.668973018118813343e+02,6.514676039512705756e+02,7.323754069765855093e+02,5.870112601832333894e+02,6.002871769204793964e+02,6.039233796745866130e+02,6.420713670081604505e+02,6.831589294616460393e+02,9.523238182067871094e+00,1.529837548732757568e-01,-4.589512646198272705e-01,3.180000000000000000e+02
6.456083153665713326e+02,6.331362729195425345e+02,7.145590181033621775e+02,6.190331938668241492e+02,5.893144817923603114e+02,5.882676366282103118e+02,6.602565633661870379e+02,6.406661489500729658e+02,9.523238182067871094e+00,1.529837548732757568e-01,-4.589512646198272705e-01,3.190000000000000000e+02
5.786763863310115994e+02,5.674555725705940858e+02,6.442560432547688833e+02,6.795060490069736261e+02,5.344542924675261020e+02,5.218599516384419985e+02,7.947425288034137338e+02,5.424458310171066842e+02,9.523238182067871094e+00,1.529837548732757568e-01,-4.589512646198272705e-01,3.200000000000000000e+02
5.462175733228214085e+02,5.373958083288380294e+02,6.091435133902268717e+02,6.772525693705829326e+02,5.040054420031010523e+02,4.889136699838854838e+02,8.467428539034008281e+02,5.159362334262041259e+02,9.523238182067871094e+00,1.529837548732757568e-01,-4.589512646198272705e-01,3.210000000000000000e+02
5.805013638196614920e+02,5.764766925518742937e+02,6.480745190489469678e+02,6.083272889884137840e+02,5.321343129855304142e+02,5.280972630570395268e+02,7.319262680911197094e+02,5.891287737807069789e+02,9.523238182067871094e+00,1.529837548732757568e-01,-4.589512646198272705e-01,3.220000000000000000e+02
6.224123062524740817e+02,6.221425960583146662e+02,6.980828771915621473e+02,5.617600901853511459e+02,5.717762375209131278e+02,5.788253891243766702e+02,5.970851626630173996e+02,6.527716426077095093e+02,9.523238182067871094e+00,1.529837548732757568e-01,-4.589512646198272705e-01,3.230000000000000000e+02
6.028817958949766762e+02,6.015993525226404017e+02,6.816827464915841119e+02,5.959041852544323774e+02,5.610280853198892146e+02,5.653207226571103092e+02,6.173288091483918834e+02,6.123236586276834714e+02,9.523238182067871094e+00,1.529837548732757568e-01,-4.589512646198272705e-01,3.240000000000000000e+02
5.380631033301724528e+02,5.333109837708325358e+02,6.128875470249549835e+02,6.575894412991146964e+02,5.087725972445805382e+02,5.022007074112443661e+02,7.536574664774379926e+02,5.184463272150751436e+02,9.523238182067871094e+00,1.529837548732757568e-01,-4.589512646198272705e-01,3.250000000000000000e+02
5.073193445919932856e+02,5.028178594478376908e+02,5.767983082048958750e+02,6.563307649635316920e+02,4.811007124859461328e+02,4.740758264006581157e+02,8.069705484212754527e+02,4.959738155370432651e+02,9.523238182067871094e+00,1.529837548732757568e-01,-4.589512646198272705e-01,3.260000000000000000e+02
5.437385630460848915e+02,5.443388447382094455e+02,6.128477271482697688e+02,5.895262395811369061e+02,5.096266298443733831e+02,5.173981800900583039e+02,6.936164524580526631e+02,5.706913336972756952e+02,9.523238182067871094e+00,1.529837548732757568e-01,-4.589512646198272705e-01,3.270000000000000000e+02
5.884063089183327975e+02,5.926286478289730439e+02,6.619410592282401922e+02,5.451636859861027915e+02,5.484754417174190166e+02,5.692925693055003649e+02,5.611953421125872410e+02,6.334684220732415270e+02,9.523238182067871094e+00,1.529837548732757568e-01,-4.589512646198272705e-01,3.280000000000000000e+02
5.724340708822928718e+02,5.732735970113571966e+02,6.482191888983506942e+02,5.795114055705125793e+02,5.376410437714548607e+02,5.544106837627041386e+02,5.840188889599958202e+02,5.911246697529350058e+02,9.523238182067871094e+00,1.529837548732757568e-01,-4.589512646198272705e-01,3.290000000000000000e+02
5.127966042911866680e+02,5.057392621136459638e+02,5.828687063146862783e+02,6.393088839864140027e+02,4.851843366493048961e+02,4.888242084927696851e+02,7.216420256280325702e+02,4.953489835330547066e+02,9.523238182067871094e+00,1.529837548732757568e-01,-4.589512646198272705e-01,3.300000000000000000e+02
4.879498583482127287e+02,4.757962228596734349e+02,5.485303106147075596e+02,6.351832823557560914e+02,4.561411698120609799e+02,4.575631218806993274e+02,7.752033710721443640e+02,4.715973283212224487e+02,9.523238182067871094e+00,1.529837548732757568e-01,-4.589512646198272705e-01,3.310000000000000000e+02
5.274546361875109142e+02,5.166436237560956215e+02,5.855215926927849068e+02,5.648462672839887091e+02,4.834399291628033097e+02,4.977776570393834845e+02,6.623226597903121728e+02,5.462734937971799809e+02,9.523238182067871094e+00,1.529837548732757568e-01,-4.589512646198272705e-01,3.320000000000000000e+02
5.702267046964698238e+02,5.633941620594268898e+02,6.352806920151051600e+02,5.168790835006657289e+02,5.225974037995038088e+02,5.482100516168284230e+02,5.306186115026430343e+02,6.104524305676604854e+02,9.523238182067871094e+00,1.529837548732757568e-01,-4.589512646198272705e-01,3.330000000000000000e+02
5.495502670352288987e+02,5.429603851164247317e+02,6.201185395436259569e+02,5.493395217081560986e+02,5.127749285680620233e+02,5.336490676265821094e+02,5.534440544966855668e+02,5.701547206631221343e+02,9.523238182067871094e+00,1.529837548732757568e-01,-4.589512646198272705e-01,3.340000000000000000e+02
4.857891350523932488e+02,4.754559943882086372e+02,5.512604467143501097e+02,6.097207141916369437e+02,4.606325422662557685e+02,4.681654772013498587e+02,6.907327338964896626e+02,4.757156301273535064e+02,9.523238182067871094e+00,1.529837548732757568e-01,-4.589512646198272705e-01,3.350000000000000000e+02
4.582305834927683463e+02,4.474414845315186540e+02,5.149183485521061812e+02,6.072933569561864715e+02,4.312214215497951955e+02,4.356899315479531651e+02,7.449836258996510878e+02,4.518625083475126303e+02,9.523238182067871094e+00,1.529837548732757568e-01,-4.589512646198272705e-01,3.360000000000000000e+02
4.961489513550332049e+02,4.924503729783755261e+02,5.533096484213019721e+02,5.387129271119119949e+02,4.582395528020788333e+02,4.745629705103128799e+02,6.335122971387681901e+02,5.253740045135054970e+02,9.523238182067871094e+00,1.529837548732757568e-01,-4.589512646198272705e-01,3.370000000000000000e+02
5.394898894263387774e+02,5.429927413574623642e+02,6.055090978752559749e+02,4.926665452290326357e+02,4.976124608314421494e+02,5.244318905419859220e+02,5.035746074089547619e+02,5.881087518295025802e+02,9.523238182067871094e+00,1.529837548732757568e-01,-4.589512646198272705e-01,3.380000000000000000e+02
5.222601335631552502e+02,5.227906826222679229e+02,5.919984371566315531e+02,5.263408127034635982e+02,4.888002801302427542e+02,5.091756279103065026e+02,5.273602218549131067e+02,5.465895838705218921e+02,9.523238182067871094e+00,1.529837548732757568e-01,-4.589512646198272705e-01,3.390000000000000000e+02
4.634513555113589973e+02,4.531001322478114162e+02,5.256121564864588436e+02,5.858386599614022998e+02,4.389187228719820268e+02,4.422233406615123386e+02,6.646028644988109590e+02,4.515107740901039506e+02,9.523238182067871094e+00,1.529837548732757568e-01,-4.589512646198272705e-01,3.400000000000000000e+02
4.409079758028747165e+02,4.240103172139788512e+02,4.936655164426629199e+02,5.816970061475876719e+02,4.129530523986250046e+02,4.084535949634810095e+02,7.186196108800868387e+02,4.279574502176837996e+02,9.523238182067871094e+00,1.529837548732757568e-01,-4.589512646198272705e-01,3.410000000000000000e+02
4.839820950555658783e+02,4.694998059272256796e+02,5.365326058316204580e+02,5.134486226305743912e+02,4.434619306391687132e+02,4.469417250897677150e+02,6.081231490639329422e+02,5.024375117069357657e+02,9.523238182067871094e+00,1.529837548732757568e-01,-4.589512646198272705e-01,3.420000000000000000e+02
5.320036978686839575e+02,5.206847052532830276e+02,5.919225323079226655e+02,4.697473382310345187e+02,4.848590509635469061e+02,4.968769722899742192e+02,4.793869216558814514e+02,5.657023482075419452e+02,9.561484336853027344e+00,1.147378161549568176e-01,-2.677215635776519775e-01,3.430000000000000000e+02
5.164215474859447568e+02,5.016735007198585663e+02,5.812185336374168401e+02,5.051886467365475255e+02,4.759462235566461459e+02,4.821877642422405188e+02,5.040787918245478068e+02,5.235413055221615650e+02,9.561484336853027344e+00,1.147378161549568176e-01,-2.677215635776519775e-01,3.440000000000000000e+02
4.548235873364828876e+02,4.333374482491199160e+02,5.173227049867855385e+02,5.653179809234861750e+02,4.242990680389557383e+02,4.171348979929534835e+02,6.424319726706744405e+02,4.272601307171644294e+02,9.561484336853027344e+00,1.147378161549568176e-01,-2.677215635776519775e-01,3.450000000000000000e+02
4.270575103648588993e+02,4.027174345419480233e+02,4.857495309689111309e+02,5.620299548228867934e+02,3.957481560828091460e+02,3.857662582858320093e+02,6.984011642124896753e+02,4.029060906812519534e+02,9.561484336853027344e+00,1.147378161549568176e-01,-2.677215635776519775e-01,3.460000000000000000e+02
4.653629806747267139e+02,4.436045590254288982e+02,5.263950771682284540e+02,4.941592984942544717e+02,4.236241829327336745e+02,4.245683671113656601e+02,5.901473799539016909e+02,4.770196746313522453e+02,9.561484336853027344e+00,1.147378161549568176e-01,-2.677215635776519775e-01,3.470000000000000000e+02
5.101200589414729620e+02,4.921741142720347852e+02,5.787380359539311030e+02,4.485022943063158891e+02,4.629818903463456081e+02,4.721093749903593562e+02,4.630904154536110582e+02,5.400914926397672389e+02,9.561484336853027344e+00,1.147378161549568176e-01,-2.677215635776519775e-01,3.480000000000000000e+02
4.930693115650065010e+02,4.754791810427705059e+02,5.654546919307322241e+02,4.808900266969794757e+02,4.528156320798734669e+02,4.550587796117761172e+02,4.887893895817251178e+02,4.984438020372181199e+02,9.561484336853027344e+00,1.147378161549568176e-01,-2.677215635776519775e-01,3.490000000000000000e+02
4.324646780581315397e+02,4.107782747811943409e+02,4.994435869300650666e+02,5.399027643845984130e+02,4.005474086817266652e+02,3.901575582685618429e+02,6.271089116462389939e+02,4.039629292928875657e+02,9.561484336853027344e+00,1.147378161549568176e-01,-2.677215635776519775e-01,3.500000000000000000e+02
4.072905157250424963e+02,3.811477175487962086e+02,4.665135962071290123e+02,5.375143657164371689e+02,3.722731062173261307e+02,3.610382883033089456e+02,6.811262512365210569e+02,3.821071752584248316e+02,9.561484336853027344e+00,1.147378161549568176e-01,-2.677215635776519775e-01,3.510000000000000000e+02
4.467115384948410792e+02,4.212317981022206368e+02,5.069551524029957363e+02,4.703947752244130243e+02,4.016739071321499068e+02,4.028130282831261866e+02,5.696439880872349022e+02,4.584062853491850547e+02,9.561484336853027344e+00,1.147378161549568176e-01,-2.677215635776519775e-01,3.520000000000000000e+02
4.894523233926593093e+02,4.694286834619342699e+02,5.595622031346065341e+02,4.252419789006453357e+02,4.430244821527594468e+02,4.535468238986359211e+02,4.405612450043117860e+02,5.233627841495399480e+02,9.561484336853027344e+00,1.147378161549568176e-01,-2.677215635776519775e-01,3.530000000000000000e+02
4.696976921172827133e+02,4.527507460472188541e+02,5.462244123924028827e+02,4.594020429289230378e+02,4.342580117725010496e+02,4.392643911515478976e+02,4.668976079856365686e+02,4.839173966766611557e+02,9.561484336853027344e+00,1.147378161549568176e-01,-2.677215635776519775e-01,3.540000000000000000e+02
4.091181751416879706e+02,3.876853842898563016e+02,4.800452395159081789e+02,5.210025934462173609e+02,3.833002958421202493e+02,3.758592767013542471e+02,6.075820969813066768e+02,3.917893493974697776e+02,9.561484336853027344e+00,1.147378161549568176e-01,-2.677215635776519775e-01,3.550000000000000000e+02
3.869065223472716752e+02,3.573676948842039565e+02,4.468524507286565495e+02,5.201605914347310318e+02,3.569653007449305733e+02,3.476262378318060655e+02,6.644193083370919339e+02,3.715081236167752650e+02,9.561484336853027344e+00,1.147378161549568176e-01,-2.677215635776519775e-01,3.560000000000000000e+02
4.302433673588820966e+02,3.969780828093353193e+02,4.861448870555032045e+02,4.534775319290783955e+02,3.875320052726892754e+02,3.909841087276145117e+02,5.559164714458165690e+02,4.479398246956698131e+02,9.561484336853027344e+00,1.147378161549568176e-01,-2.677215635776519775e-01,3.570000000000000000e+02
4.768993645234659198e+02,4.460708948916289955e+02,5.367570927368506091e+02,4.089775851677040919e+02,4.278959447413071757e+02,4.431194735119424877e+02,4.292997744316817261e+02,5.114469144730101107e+02,9.561484336853027344e+00,1.147378161549568176e-01,-2.677215635776519775e-01,3.580000000000000000e+02
4.605713248286047019e+02,4.327991772184468573e+02,5.221094438570435159e+02,4.441307232151812059e+02,4.176374194031086517e+02,4.279139000983486767e+02,4.560501941721158801e+02,4.691760787560924655e+02,9.561484336853027344e+00,1.147378161549568176e-01,-2.677215635776519775e-01,3.590000000000000000e+02
4.010487483319448074e+02,3.729894558527375921e+02,4.564682356569101103e+02,5.064250785710173659e+02,3.666059653045740561e+02,3.615650379384460393e+02,5.948114328250376275e+02,3.736089634506424773e+02,9.561484336853027344e+00,1.147378161549568176e-01,-2.677215635776519775e-01,3.600000000000000000e+02
3.763792002490954474e+02,3.479485970216046553e+02,4.251757015068142209e+02,5.066239574588980759e+02,3.403914110858167987e+02,3.307949444156402024e+02,6.494053058078861795e+02,3.503998084675913560e+02,9.561484336853027344e+00,1.147378161549568176e-01,-2.677215635776519775e-01,3.610000000000000000e+02
4.159921963980741566e+02,3.916554578376526479e+02,4.665424744886113331e+02,4.422327966144512175e+02,3.702158007659818395e+02,3.728565335517778294e+02,5.400844160552369431e+02,4.251872698345687240e+02,9.561484336853027344e+00,1.147378161549568176e-01,-2.677215635776519775e-01,3.620000000000000000e+02
4.605538125099556055e+02,4.420273532994906418e+02,5.187773078260725015e+02,3.999582127717876574e+02,4.114384237732301699e+02,4.242357912954830681e+02,4.151698202355619287e+02,4.889507443751717801e+02,9.561484336853027344e+00,1.147378161549568176e-01,-2.677215635776519775e-01,3.630000000000000000e+02
4.433225563898085966e+02,4.249965115347658866e+02,5.053431672288425034e+02,4.349760613382823067e+02,4.052004969445406459e+02,4.097703359982988331e+02,4.442312640219606692e+02,4.496982512198883342e+02,9.446745872497558594e+00,7.649187743663787842e-02,-3.442134261131286621e-01,3.640000000000000000e+02
3.822085190528814564e+02,3.577205239813629305e+02,4.407090430730750086e+02,4.950627168910577893e+02,3.581419631199096330e+02,3.470308826150067034e+02,5.840010025244264398e+02,3.594898676617303863e+02,9.446745872497558594e+00,7.649187743663787842e-02,-3.442134261131286621e-01,3.650000000000000000e+02
3.560439662842836697e+02,3.270836285425175447e+02,4.102614931294738199e+02,4.935545571018519695e+02,3.327305447967810323e+02,3.202695255055659800e+02,6.377526037742791232e+02,3.409201186221180251e+02,9.446745872497558594e+00,7.649187743663787842e-02,-3.442134261131286621e-01,3.660000000000000000e+02
3.965405860476021189e+02,3.701373049865505891e+02,4.523168039189695264e+02,4.289140238268810208e+02,3.614088232099820743e+02,3.622404347736955970e+02,5.269000167132617207e+02,4.165802253422225476e+02,9.446745872497558594e+00,7.649187743663787842e-02,-3.442134261131286621e-01,3.670000000000000000e+02
4.443718204973411048e+02,4.220020128659307375e+02,5.051420766676892526e+02,3.863913075043528806e+02,4.011287249864690239e+02,4.094692823996592779e+02,3.997704048663727008e+02,4.781370402094398742e+02,9.446745872497558594e+00,7.649187743663787842e-02,-3.442134261131286621e-01,3.680000000000000000e+02
4.308953173545451136e+02,4.056649781474843621e+02,4.919620324930001516e+02,4.205834781894955086e+02,3.924070749581587734e+02,3.914407615843374515e+02,4.272445334741933038e+02,4.366498597911704564e+02,9.446745872497558594e+00,7.649187743663787842e-02,-3.442134261131286621e-01,3.690000000000000000e+02
3.729165455154507072e+02,3.390947079722100170e+02,4.267946119181797258e+02,4.805152172672605957e+02,3.430610291394841624e+02,3.281557430049069808e+02,5.673525749588734470e+02,3.452426117697978043e+02,9.446745872497558594e+00,7.649187743663787842e-02,-3.442134261131286621e-01,3.700000000000000000e+02
3.488118863769996096e+02,3.098762310906531638e+02,3.952791947853183956e+02,4.797876034279834130e+02,3.185510619681226672e+02,3.020852189272263786e+02,6.235465036397799850e+02,3.254480447108799126e+02,9.446745872497558594e+00,7.649187743663787842e-02,-3.442134261131286621e-01,3.710000000000000000e+02
3.893024610662178020e+02,3.533762658856139751e+02,4.367404737402466708e+02,4.155851496108953143e+02,3.501147654005399090e+02,3.448492605131323216e+02,5.162138116095738951e+02,3.998303001484600827e+02,9.446745872497558594e+00,7.649187743663787842e-02,-3.442134261131286621e-01,3.720000000000000000e+02
4.348329420131412917e+02,4.042792412744092871e+02,4.897770559181662975e+02,3.730272081121001975e+02,3.901668268358916976e+02,3.938524931511710747e+02,3.924042179368261714e+02,4.610197954377217684e+02,9.446745872497558594e+00,7.649187743663787842e-02,-3.442134261131286621e-01,3.730000000000000000e+02
4.186452284277911531e+02,3.878838656711304793e+02,4.769031602967079380e+02,4.078542359610873973e+02,3.790236337950773304e+02,3.777384798040657188e+02,4.220725574996613432e+02,4.196909273261771887e+02,9.446745872497558594e+00,7.649187743663787842e-02,-3.442134261131286621e-01,3.740000000000000000e+02
3.597675964064255822e+02,3.234629509241567575e+02,4.118201542426249944e+02,4.688612408640474314e+02,3.283403013645583997e+02,3.143405962993565481e+02,5.628715354292216944e+02,3.281557574798789574e+02,9.446745872497558594e+00,7.649187743663787842e-02,-3.442134261131286621e-01,3.750000000000000000e+02
3.366164594237052370e+02,2.965337619859055849e+02,3.806420694655389525e+02,4.685340634086896898e+02,3.041322111194094759e+02,2.870491277273831656e+02,6.188689484190545045e+02,3.089952086646153475e+02,9.446745872497558594e+00,7.649187743663787842e-02,-3.442134261131286621e-01,3.760000000000000000e+02
3.779908445772234700e+02,3.395200572145622573e+02,4.227397488968854304e+02,4.049002943387022242e+02,3.352863627902625012e+02,3.305191905980900628e+02,5.117873197905719280e+02,3.859708828759394237e+02,9.446745872497558594e+00,7.649187743663787842e-02,-3.442134261131286621e-01,3.770000000000000000e+02
4.228525520405964926e+02,3.873225802198139718e+02,4.762669623587353271e+02,3.648953129080910003e+02,3.749467973576684017e+02,3.821673467252257979e+02,3.892179310777428327e+02,4.502184062536980491e+02,9.446745872497558594e+00,7.649187743663787842e-02,-3.442134261131286621e-01,3.780000000000000000e+02
4.049620840751449578e+02,3.693301248769130325e+02,4.637194442800464458e+02,4.034676527848350815e+02,3.654258370441530133e+02,3.678573377323045861e+02,4.202351026541728061e+02,4.099548414946475532e+02,9.446745872497558594e+00,7.649187743663787842e-02,-3.442134261131286621e-01,3.790000000000000000e+02
3.449760641829052474e+02,3.080580910112112178e+02,3.987514773616203456e+02,4.665037156206890359e+02,3.163351277361798566e+02,3.043137330122335698e+02,5.617452952995372470e+02,3.174629472078668186e+02,9.446745872497558594e+00,7.649187743663787842e-02,-3.442134261131286621e-01,3.800000000000000000e+02
3.220941402949247276e+02,2.864900034703387064e+02,3.669660794010487734e+02,4.653146978209333611e+02,2.909195838592640939e+02,2.758503421995555982e+02,6.184685923352808459e+02,2.968368804780766368e+02,9.446745872497558594e+00,7.649187743663787842e-02,-3.442134261131286621e-01,3.810000000000000000e+02
3.646902819936294691e+02,3.319850337944662897e+02,4.081731825233146083e+02,3.994329001027072081e+02,3.200109502095656353e+02,3.175634598875476513e+02,5.130753372798790224e+02,3.721143054394415230e+02,9.446745872497558594e+00,7.649187743663787842e-02,-3.442134261131286621e-01,3.820000000000000000e+02
4.115376981049339520e+02,3.795054248921951512e+02,4.623292512068655924e+02,3.571958348937041592e+02,3.599136804884110461e+02,3.672823188313268474e+02,3.905552897028828738e+02,4.342770126556279138e+02,9.446745872497558594e+00,7.649187743663787842e-02,-3.442134261131286621e-01,3.830000000000000000e+02
3.960053772802493768e+02,3.618666146919640596e+02,4.522040152271802071e+02,3.936784628694149433e+02,3.515011997346518910e+02,3.516000678085547406e+02,4.205080711568443803e+02,3.926610701293975580e+02,9.446745872497558594e+00,7.649187743663787842e-02,-3.442134261131286621e-01,3.840000000000000000e+02
3.378964231301433756e+02,3.017795559771111584e+02,3.898069678266474511e+02,4.544107520045945421e+02,3.024148121642065234e+02,2.875571968622462009e+02,5.589444714266282972e+02,3.010127863208763301e+02,9.446745872497558594e+00,7.649187743663787842e-02,-3.442134261131286621e-01,3.850000000000000000e+02
3.156082631219978794e+02,2.799676981980519486e+02,3.593502477401198121e+02,4.516912052228872199e+02,2.772448995074373670e+02,2.593257475635036826e+02,6.111682548979733838e+02,2.826993773281865288e+02,9.446745872497558594e+00,7.649187743663787842e-02,-3.442134261131286621e-01,3.860000000000000000e+02
3.584802557501825504e+02,3.254527580354406382e+02,4.006386446564283688e+02,3.866965124292619294e+02,3.080999246832434437e+02,3.029688095483870711e+02,5.013372161337319994e+02,3.599977250930460286e+02,9.446745872497558594e+00,7.649187743663787842e-02,-3.442134261131286621e-01,3.870000000000000000e+02
4.069141108525218442e+02,3.758397726688053808e+02,4.537837388804473449e+02,3.476692981813539518e+02,3.494947909155744128e+02,3.564993757488045958e+02,3.780283452205039794e+02,4.236118932755271089e+02,9.446745872497558594e+00,7.649187743663787842e-02,-3.442134261131286621e-01,3.880000000000000000e+02
3.945036772457024199e+02,3.614688869988458464e+02,4.423854430056453566e+02,3.869806296861352166e+02,3.416349983855034225e+02,3.442109518408833537e+02,4.092650214315799531e+02,3.837744229831951088e+02,9.484992027282714844e+00,1.529837548732757568e-01,-4.207052886486053467e-01,3.890000000000000000e+02
3.391455598509637639e+02,3.008789701424466330e+02,3.797480468412104528e+02,4.484856775381922489e+02,2.936675786006962880e+02,2.807856752246079850e+02,5.501838099523738492e+02,2.935598250601615291e+02,9.484992027282714844e+00,1.529837548732757568e-01,-4.207052886486053467e-01,3.900000000000000000e+02
3.177551928879838670e+02,2.763811163909849711e+02,3.500820532470606850e+02,4.454981063452869421e+02,2.704306536202202551e+02,2.514621959319993039e+02,6.048626911753672175e+02,2.750237946239140001e+02,9.484992027282714844e+00,1.529837548732757568e-01,-4.207052886486053467e-01,3.910000000000000000e+02
3.592806505434855353e+02,3.199946349746169290e+02,3.913864465930964798e+02,3.801327830018126406e+02,3.023109654282452539e+02,2.941932838783832267e+02,4.967583110213599866e+02,3.512542382759274915e+02,9.484992027282714844e+00,1.529837548732757568e-01,-4.207052886486053467e-01,3.920000000000000000e+02
4.038066360100347083e+02,3.671771034676712588e+02,4.431930526489377371e+02,3.397043840761180036e+02,3.438955940415253281e+02,3.471657251483484288e+02,3.741118663170491345e+02,4.153933646096047596e+02,9.484992027282714844e+00,1.529837548732757568e-01,-4.207052886486053467e-01,3.930000000000000000e+02
3.853225961565767648e+02,3.460215967649710365e+02,4.306190022826922359e+02,3.768308653133863118e+02,3.372288012354983948e+02,3.357094717787695117e+02,4.048002690944558708e+02,3.784201705581435817e+02,9.484992027282714844e+00,1.529837548732757568e-01,-4.207052886486053467e-01,3.940000000000000000e+02
3.242342061962262960e+02,2.787137145390806836e+02,3.675074607397473301e+02,4.379061899746448034e+02,2.912528145926626166e+02,2.766394659023790155e+02,5.444408436386147514e+02,2.916829635965405032e+02,9.484992027282714844e+00,1.529837548732757568e-01,-4.207052886486053467e-01,3.950000000000000000e+02
3.004521107101318194e+02,2.518436508513987064e+02,3.372249243559708702e+02,4.369814145740601816e+02,2.688371581658939249e+02,2.535613869700609939e+02,5.981170138996822061e+02,2.753764217445350369e+02,9.484992027282714844e+00,1.529837548732757568e-01,-4.207052886486053467e-01,3.960000000000000000e+02
