F3,F4,C3,C4,P3,P4,Cz,Pz,Accel_x,Accel_y,Accel_z,Sample
5.911715561524033546e-12,6.821210263296961784e-12,1.091393642127513885e-11,8.640199666842818260e-12,-4.092726157978177071e-12,-3.637978807091712952e-12,-1.364242052659392357e-12,8.185452315956354141e-12,9.446745872497558594e+00,2.677215635776519775e-01,-2.677215635776519775e-01,0.000000000000000000e+00
-4.583189300029994229e+02,-6.149320878325943340e+02,-2.708618814622814170e+02,-6.390644563724908949e+02,-4.787363876606000304e+02,-3.704151645299120901e+02,-4.735610504619789936e+02,-4.526111583423894444e+02,9.446745872497558594e+00,2.677215635776519775e-01,-2.677215635776519775e-01,1.000000000000000000e+00
-5.442095324124684339e+02,-7.759167826810535189e+02,-3.343946906715837031e+02,-1.280063698146984279e+03,-5.802893102265143170e+02,-4.398629722929558739e+02,-6.580721623083536542e+02,-5.514518422659516546e+02,9.446745872497558594e+00,2.677215635776519775e-01,-2.677215635776519775e-01,2.000000000000000000e+00
-3.713767571101193425e+02,-6.227394162625016634e+02,-1.299749861344598685e+02,-2.009970913716344512e+03,-4.254835298404209425e+02,-3.106875774017730691e+02,-6.130542326727286309e+02,-4.115980081545528719e+02,9.446745872497558594e+00,2.677215635776519775e-01,-2.677215635776519775e-01,3.000000000000000000e+00
-2.145584241189189925e+02,-4.944760087368972563e+02,8.656384222144924934e+01,-2.764006803175973801e+03,-3.037790928735739726e+02,-2.028485522011033027e+02,-7.393599402717841258e+02,-2.800381508680557090e+02,9.446745872497558594e+00,2.677215635776519775e-01,-2.677215635776519775e-01,4.000000000000000000e+00
-6.238366144172914574e+01,-3.778674515223965500e+02,-3.861363336883323427e+01,-3.272673781708976549e+03,-2.061210443577683691e+02,-8.483574232376895452e+01,-1.275452031856646499e+03,-1.151612001084599797e+02,9.446745872497558594e+00,2.677215635776519775e-01,-2.677215635776519775e-01,5.000000000000000000e+00
1.935163787759283878e+02,-1.357115226823530065e+02,-4.207601718423800321e+02,-3.540062950906444712e+03,-6.133136309794736007e+00,1.373004069455464560e+02,-1.995506205668721122e+03,1.693692710721545609e+02,9.446745872497558594e+00,2.677215635776519775e-01,-2.677215635776519775e-01,6.000000000000000000e+00
4.471827947211163519e+02,1.087577783879680737e+02,-5.527612307120880359e+02,-3.985388103198576573e+03,2.102286903372405504e+02,3.518240350418368507e+02,-2.524138936791040578e+03,4.113535199786963403e+02,9.446745872497558594e+00,2.677215635776519775e-01,-2.677215635776519775e-01,7.000000000000000000e+00
5.832629606355567375e+02,2.125973786654164996e+02,-2.495501004273664876e+02,-4.823932457442111627e+03,3.237566774617671399e+02,4.487123546734060255e+02,-2.926151876437707415e+03,4.872199360962704304e+02,9.446745872497558594e+00,2.677215635776519775e-01,-2.677215635776519775e-01,8.000000000000000000e+00
7.104856613142237620e+02,3.051350140015515535e+02,2.663052214937147255e+01,-5.577497890322561034e+03,4.214866730268113315e+02,5.393606504642834807e+02,-3.565227711552641722e+03,5.705702403751154179e+02,9.446745872497558594e+00,2.677215635776519775e-01,-2.677215635776519775e-01,9.000000000000000000e+00
9.379038739815082408e+02,5.290097000426201248e+02,-1.366753213772014988e+02,-5.592116984538963152e+03,6.067525287644443779e+02,7.407882549031994586e+02,-4.385205038342040098e+03,8.267937014462531806e+02,9.446745872497558594e+00,2.677215635776519775e-01,-2.677215635776519775e-01,1.000000000000000000e+01
1.187758463135059628e+03,7.914221957018853573e+02,-4.919976724823304721e+02,-5.063074822439508353e+03,8.183271633315830513e+02,9.804641033586922276e+02,-5.070107699460597360e+03,1.135546725962321489e+03,9.446745872497558594e+00,2.677215635776519775e-01,-2.677215635776519775e-01,1.100000000000000000e+01
1.381792186269361537e+03,9.729561959810689586e+02,-5.732044595061288419e+02,-5.009400354810147292e+03,9.872839930147906671e+02,1.161963677591344322e+03,-5.771727265784250449e+03,1.320959890417509541e+03,9.446745872497558594e+00,2.677215635776519775e-01,-2.677215635776519775e-01,1.200000000000000000e+01
1.543479913378856963e+03,1.098381114276396829e+03,-3.696349306713345868e+02,-5.836433951398551471e+03,1.130429880774862340e+03,1.293391081904735756e+03,-6.665497928307815528e+03,1.407260799329620340e+03,9.446745872497558594e+00,2.677215635776519775e-01,-2.677215635776519775e-01,1.300000000000000000e+01
1.681934797455498028e+03,1.218971639461024552e+03,-1.608896184781131069e+02,-6.599626502411947513e+03,1.251254063314139557e+03,1.405030999716446559e+03,-7.338405210338542020e+03,1.520990533433810697e+03,9.446745872497558594e+00,2.677215635776519775e-01,-2.677215635776519775e-01,1.400000000000000000e+01
1.828547779586181150e+03,1.377615235456520168e+03,1.866687176702043871e+00,-6.466831795837589198e+03,1.375058217193689416e+03,1.547897036180118675e+03,-7.796279558313326561e+03,1.732746911974869818e+03,9.446745872497558594e+00,2.677215635776519775e-01,-2.677215635776519775e-01,1.500000000000000000e+01
2.071447973087205810e+03,1.625816407831259312e+03,2.361296026868324134e+02,-6.070532685635933376e+03,1.583492911862440224e+03,1.788791871941609998e+03,-8.831299082783398262e+03,2.015056728020335413e+03,9.446745872497558594e+00,2.677215635776519775e-01,-2.677215635776519775e-01,1.600000000000000000e+01
2.333666576322478249e+03,1.871107347171010815e+03,4.869304190557224956e+02,-6.333004625862453395e+03,1.817702950376979061e+03,2.034748821343542204e+03,-1.020093290228473415e+04,2.231614898214821096e+03,9.446745872497558594e+00,2.677215635776519775e-01,-2.677215635776519775e-01,1.700000000000000000e+01
2.418587646239393962e+03,1.945787654126312191e+03,6.208816733302546709e+02,-6.985780675449893351e+03,1.904800828765823780e+03,2.109602287861087461e+03,-1.066685659388021304e+04,2.282821927500005586e+03,9.446745872497558594e+00,2.677215635776519775e-01,-2.677215635776519775e-01,1.800000000000000000e+01
2.440669149465146347e+03,1.970540217536730779e+03,7.037382016362289505e+02,-7.421461105891445186e+03,1.929131678704960677e+03,2.128097005257689489e+03,-1.075653499347233810e+04,2.324432453405754131e+03,9.446745872497558594e+00,2.677215635776519775e-01,-2.677215635776519775e-01,1.900000000000000000e+01
2.696926393571857716e+03,2.216045573004425933e+03,8.919811914480933410e+02,-7.706679001131064979e+03,2.141990226501337020e+03,2.360556191991701780e+03,-1.200708463546899475e+04,2.574937769230398317e+03,9.446745872497558594e+00,2.677215635776519775e-01,-2.677215635776519775e-01,2.000000000000000000e+01
3.025449922708693975e+03,2.533980612614027450e+03,1.157481720486101267e+03,-7.774619121747607096e+03,2.422032404294024218e+03,2.667072633651554042e+03,-1.320863083433743486e+04,2.895386665653654291e+03,9.446745872497558594e+00,2.677215635776519775e-01,-2.677215635776519775e-01,2.100000000000000000e+01
3.046771157186311939e+03,2.574220994929462449e+03,1.349830330561892879e+03,-7.380761621489531535e+03,2.458794811520606345e+03,2.707157586718071798e+03,-1.249940023418028977e+04,2.986599408259045958e+03,9.446745872497558594e+00,2.677215635776519775e-01,-2.677215635776519775e-01,2.200000000000000000e+01
3.023881693032134535e+03,2.551102192616333923e+03,1.440852051775182417e+03,-7.403039825663985539e+03,2.462396850041915513e+03,2.690253242275272896e+03,-1.247914287011731358e+04,2.973354911985009494e+03,9.446745872497558594e+00,2.677215635776519775e-01,-2.677215635776519775e-01,2.300000000000000000e+01
3.429034690101201249e+03,2.890772411064564949e+03,1.539509902159423518e+03,-8.588342054406586612e+03,2.812842628391049857e+03,3.026831261136149351e+03,-1.587643528130053164e+04,3.197553122364909086e+03,9.446745872497558594e+00,2.677215635776519775e-01,-2.677215635776519775e-01,2.400000000000000000e+01
3.719074522619111576e+03,3.164369546869364058e+03,1.720387129228111462e+03,-8.812721590021878001e+03,3.055915885504778998e+03,3.284269085297953097e+03,-1.742332953118367368e+04,3.456491733538249719e+03,9.446745872497558594e+00,2.677215635776519775e-01,-2.677215635776519775e-01,2.500000000000000000e+01
2.890065986749704734e+03,2.517837803358785095e+03,1.939604233109627785e+03,-5.184423016685736002e+03,2.368205667207973875e+03,2.622448491542664669e+03,-9.815813610706078180e+03,3.185353513377108357e+03,9.446745872497558594e+00,2.677215635776519775e-01,-2.677215635776519775e-01,2.600000000000000000e+01
1.273182166267379444e+03,1.194089979040938260e+03,2.108642443948659547e+03,8.249598510020143749e+02,1.035762599192819380e+03,1.294920060243372518e+03,3.112932740753145936e+03,2.444749677678188618e+03,9.446745872497558594e+00,2.294756323099136353e-01,-3.442134261131286621e-01,2.700000000000000000e+01
3.217397043398868846e+02,3.999011949597729654e+02,2.201138774080646726e+03,4.468834885737365767e+03,2.612694489686364250e+02,5.010053157958686825e+02,1.005731904813306392e+04,1.958742825284909941e+03,9.446745872497558594e+00,2.294756323099136353e-01,-3.442134261131286621e-01,2.800000000000000000e+01
5.309291800561836681e+02,5.761668483309351814e+02,2.283676995296365021e+03,4.284614264901942079e+03,4.427026958414389810e+02,6.688185542223911852e+02,8.456911344471889606e+03,2.076315349786898423e+03,9.446745872497558594e+00,2.294756323099136353e-01,-3.442134261131286621e-01,2.900000000000000000e+01
9.937532057701137091e+02,9.899224490839683313e+02,2.435586517814786930e+03,3.336544440330486850e+03,8.263493373238050026e+02,1.065962425144518420e+03,6.015283394561596651e+03,2.410555323742089513e+03,9.446745872497558594e+00,2.294756323099136353e-01,-3.442134261131286621e-01,3.000000000000000000e+01
1.060835440085967548e+03,1.087321023036848146e+03,2.639377778444609248e+03,3.757187342325412828e+03,8.866730799371996454e+02,1.150822768215260794e+03,6.862293667996884324e+03,2.577507375571519333e+03,9.446745872497558594e+00,2.294756323099136353e-01,-3.442134261131286621e-01,3.100000000000000000e+01
1.046209583795663093e+03,1.097957668662906599e+03,2.795744856851622899e+03,4.412578844441623005e+03,8.898129973555533070e+02,1.159608849544901432e+03,7.334868995270739106e+03,2.629296982089158064e+03,9.446745872497558594e+00,2.294756323099136353e-01,-3.442134261131286621e-01,3.200000000000000000e+01
1.224797105689969840e+03,1.242437256046767288e+03,2.863254812588806544e+03,4.287856255996808613e+03,1.052170019347167909e+03,1.304900761320919173e+03,5.413612210545347807e+03,2.697323873584532521e+03,9.446745872497558594e+00,2.294756323099136353e-01,-3.442134261131286621e-01,3.300000000000000000e+01
1.375865206629633576e+03,1.364257007775649072e+03,2.921645133285580414e+03,4.176037002553033744e+03,1.180402535315532987e+03,1.418213290652750857e+03,4.077300065441064817e+03,2.773273267256519375e+03,9.446745872497558594e+00,2.294756323099136353e-01,-3.442134261131286621e-01,3.400000000000000000e+01
1.418884166479016358e+03,1.422656644363727537e+03,3.059467308000221237e+03,4.525583399790597468e+03,1.214556929125863007e+03,1.458697584687771723e+03,4.740643522976621171e+03,2.886264265586011334e+03,9.446745872497558594e+00,2.294756323099136353e-01,-3.442134261131286621e-01,3.500000000000000000e+01
1.551581036321624197e+03,1.570892727123940858e+03,3.250859443679966716e+03,4.697306835259747459e+03,1.331219183331731983e+03,1.592259773684055745e+03,5.216230654053998478e+03,3.075720827853022456e+03,9.446745872497558594e+00,2.294756323099136353e-01,-3.442134261131286621e-01,3.600000000000000000e+01
1.749608051400776731e+03,1.755509138292947227e+03,3.391244572326461366e+03,4.578125984496173260e+03,1.510771098967895114e+03,1.775281912408288008e+03,4.437030992922384939e+03,3.224818837846098177e+03,9.446745872497558594e+00,2.294756323099136353e-01,-3.442134261131286621e-01,3.700000000000000000e+01
1.816317829988170161e+03,1.805551476753295447e+03,3.443066660687338754e+03,4.710463048324440024e+03,1.580046463290927704e+03,1.831193378865860041e+03,3.630792072111075413e+03,3.232214313778730684e+03,9.446745872497558594e+00,2.294756323099136353e-01,-3.442134261131286621e-01,3.800000000000000000e+01
1.812385736120331785e+03,1.800867535932537976e+03,3.485797755909884927e+03,5.032851524950418025e+03,1.582207541813916578e+03,1.825678036982792491e+03,3.315176077717314456e+03,3.230139269667713052e+03,9.446745872497558594e+00,2.294756323099136353e-01,-3.442134261131286621e-01,3.900000000000000000e+01
1.931059769778072223e+03,1.925318179905827037e+03,3.604180063943433197e+03,5.085034054073037623e+03,1.680107265218777911e+03,1.938134929786527664e+03,3.021055867385054171e+03,3.377807131522893087e+03,9.446745872497558594e+00,2.294756323099136353e-01,-3.442134261131286621e-01,4.000000000000000000e+01
2.128371382248767077e+03,2.125083166375595738e+03,3.773801303737927810e+03,4.986738842113063583e+03,1.845489564567807520e+03,2.125519079615354258e+03,2.884861916707611272e+03,3.588735747718713355e+03,9.446745872497558594e+00,2.294756323099136353e-01,-3.442134261131286621e-01,4.100000000000000000e+01
2.236553251428530075e+03,2.227793702137779292e+03,3.894622945899012848e+03,5.107673344307941079e+03,1.944083832010484912e+03,2.226458582077884785e+03,2.924560003004918144e+03,3.678405487605839880e+03,9.446745872497558594e+00,2.294756323099136353e-01,-3.442134261131286621e-01,4.200000000000000000e+01
2.256646755861477686e+03,2.233284265221851001e+03,3.929481341975164469e+03,5.347053241358466948e+03,1.972721365058090669e+03,2.236609531884398166e+03,2.346583149278156270e+03,3.651214825881613706e+03,9.446745872497558594e+00,2.294756323099136353e-01,-3.442134261131286621e-01,4.300000000000000000e+01
2.303499853189929127e+03,2.269959201708848013e+03,3.954687718363470140e+03,5.438057458247813884e+03,2.019198845068608534e+03,2.270513010678181217e+03,1.241014641674818677e+03,3.667565294483956677e+03,9.446745872497558594e+00,2.294756323099136353e-01,-3.442134261131286621e-01,4.400000000000000000e+01
2.415056126756313461e+03,2.391060705747673637e+03,4.054591767464859004e+03,5.424901574698867989e+03,2.115618146790087849e+03,2.376941561766056566e+03,9.214959901737665859e+02,3.806749627312526627e+03,9.446745872497558594e+00,2.294756323099136353e-01,-3.442134261131286621e-01,4.500000000000000000e+01
2.544344051606254652e+03,2.538486471511670970e+03,4.206718918015285453e+03,5.461289939086333106e+03,2.231680478638486420e+03,2.509245067748192923e+03,1.453641714699874456e+03,3.980878178784509146e+03,9.446745872497558594e+00,2.294756323099136353e-01,-3.442134261131286621e-01,4.600000000000000000e+01
2.636675735240077756e+03,2.632318895020983291e+03,4.314214960600459563e+03,5.558243773968517417e+03,2.324660074427141353e+03,2.599741598548302136e+03,1.256030761121912747e+03,4.061804116338833865e+03,9.446745872497558594e+00,2.294756323099136353e-01,-3.442134261131286621e-01,4.700000000000000000e+01
2.674704821765292763e+03,2.653652826187940718e+03,4.339575479815071958e+03,5.676567364718727731e+03,2.370469018989966571e+03,2.626227896683506515e+03,2.648904358551590121e+01,4.040286528613055452e+03,9.446745872497558594e+00,2.294756323099136353e-01,-3.442134261131286621e-01,4.800000000000000000e+01
2.703875333378918185e+03,2.670879356931673101e+03,4.355818759426623728e+03,5.782217331407696292e+03,2.397864939401228185e+03,2.642871027410855277e+03,-6.675559584916568383e+02,4.037857511957296538e+03,9.446745872497558594e+00,2.294756323099136353e-01,-3.442134261131286621e-01,4.900000000000000000e+01
2.789641105161117594e+03,2.762921842062011820e+03,4.445011779765013671e+03,5.823859397081298994e+03,2.465988301610851522e+03,2.722350124580902502e+03,-4.371626793362245280e+02,4.149580627878385712e+03,9.446745872497558594e+00,2.294756323099136353e-01,-3.442134261131286621e-01,5.000000000000000000e+01
2.920922064203343325e+03,2.906751050885585300e+03,4.584023916849870147e+03,5.819835818620109421e+03,2.577442574789631180e+03,2.850857895918356917e+03,-6.343035171461847312e+02,4.310849369684427074e+03,9.446745872497558594e+00,2.294756323099136353e-01,-3.442134261131286621e-01,5.100000000000000000e+01
3.013601467167147803e+03,3.000087247603386913e+03,4.676039803688411666e+03,5.870632929962195703e+03,2.665203118519196323e+03,2.937607188926229355e+03,-1.359561796309106739e+03,4.381195761453942396e+03,9.446745872497558594e+00,2.294756323099136353e-01,-3.442134261131286621e-01,5.200000000000000000e+01
3.031778594823429557e+03,3.006837040119526137e+03,4.685399661682617079e+03,6.003892042554528416e+03,2.690803232456824844e+03,2.945192244020771341e+03,-1.493561053286821789e+03,4.341379154978923907e+03,9.446745872497558594e+00,2.294756323099136353e-01,-3.442134261131286621e-01,5.300000000000000000e+01
3.042963340931798939e+03,3.011347500529900117e+03,4.688107955809575287e+03,6.112709331582037521e+03,2.702963672700819188e+03,2.947055366425210650e+03,-1.797664646997916407e+03,4.323692734768125774e+03,9.446745872497558594e+00,2.294756323099136353e-01,-3.442134261131286621e-01,5.400000000000000000e+01
3.120227391751695905e+03,3.097555737720259458e+03,4.766602667735909563e+03,6.118434855669922399e+03,2.766277466039109186e+03,3.022879856490528709e+03,-3.487805970343167246e+03,4.427738053372653667e+03,9.446745872497558594e+00,2.294756323099136353e-01,-3.442134261131286621e-01,5.500000000000000000e+01
3.237666650515379843e+03,3.228872910311529722e+03,4.895297735762397679e+03,6.096632204828104477e+03,2.868783413427368941e+03,3.144900380792025771e+03,-3.919046395837460295e+03,4.581285378435833991e+03,9.446745872497558594e+00,2.294756323099136353e-01,-3.442134261131286621e-01,5.600000000000000000e+01
3.315291985953000676e+03,3.305102341383382736e+03,4.976296409726297497e+03,6.147644386765349736e+03,2.945854058394620097e+03,3.221786595682374809e+03,6.421492000306013779e+02,4.644107438045977688e+03,9.446745872497558594e+00,2.294756323099136353e-01,-3.442134261131286621e-01,5.700000000000000000e+01
3.326902018183473501e+03,3.299143255111078361e+03,4.974909213843066027e+03,6.267121364808579528e+03,2.966685356988638887e+03,3.220627301218832145e+03,8.064774396125333624e+03,4.599474549684683552e+03,9.484992027282714844e+00,2.294756323099136353e-01,-3.059675097465515137e-01,5.800000000000000000e+01
3.334942164925241286e+03,3.295369864667733054e+03,4.966414756543937983e+03,6.352402339650869180e+03,2.975439698138562562e+03,3.211495586828964861e+03,1.209297694008252984e+04,4.575717460786224365e+03,9.484992027282714844e+00,2.294756323099136353e-01,-3.059675097465515137e-01,5.900000000000000000e+01
3.402832300687123279e+03,3.372919782204085550e+03,5.030738535033163316e+03,6.344876784634827345e+03,3.029242006109564500e+03,3.271536628618021950e+03,1.120206752017930194e+04,4.667740197542455462e+03,9.484992027282714844e+00,2.294756323099136353e-01,-3.059675097465515137e-01,6.000000000000000000e+01
3.507192587304636163e+03,3.495247078582415725e+03,5.142150730710060998e+03,6.310008770628593084e+03,3.119103546266896046e+03,3.379669274437375861e+03,9.731683635361852794e+03,4.805831370458343372e+03,9.484992027282714844e+00,2.294756323099136353e-01,-3.059675097465515137e-01,6.100000000000000000e+01
3.570132054396848162e+03,3.560103288017512114e+03,5.205612475051458205e+03,6.345868188017514512e+03,3.182887187793250177e+03,3.446180225709626029e+03,1.030149230911490486e+04,4.852955476909329263e+03,9.484992027282714844e+00,2.294756323099136353e-01,-3.059675097465515137e-01,6.200000000000000000e+01
3.566265244100283326e+03,3.541198260285179003e+03,5.188749945817716252e+03,6.448209085768406112e+03,3.192518855572234315e+03,3.437129683481360644e+03,1.109190073359651069e+04,4.795725192348928431e+03,9.484992027282714844e+00,2.294756323099136353e-01,-3.059675097465515137e-01,6.300000000000000000e+01
3.558095466059204227e+03,3.524330657228191740e+03,5.167523859567975705e+03,6.517621866161422076e+03,3.193931030745403405e+03,3.421769282819641376e+03,1.070865688667328868e+04,4.763958244932389789e+03,9.484992027282714844e+00,2.294756323099136353e-01,-3.059675097465515137e-01,6.400000000000000000e+01
3.611654730599550930e+03,3.588370261844215747e+03,5.222504491461862926e+03,6.497360492033584705e+03,3.243192870178520479e+03,3.476282465301089815e+03,1.030815737561192327e+04,4.850832558732392499e+03,9.484992027282714844e+00,2.294756323099136353e-01,-3.059675097465515137e-01,6.500000000000000000e+01
3.706675648118127810e+03,3.697398523226408997e+03,5.327739233614156547e+03,6.451762630754177735e+03,3.327457644699342836e+03,3.577274663762282671e+03,1.057172758596538733e+04,4.982692354218204855e+03,9.484992027282714844e+00,2.294756323099136353e-01,-3.059675097465515137e-01,6.600000000000000000e+01
3.763885144910924282e+03,3.752413887893573246e+03,5.385130155811177247e+03,6.477730816585011780e+03,3.381545672666961764e+03,3.634051648434462550e+03,1.069868207131079907e+04,5.019849093104026906e+03,9.484992027282714844e+00,2.294756323099136353e-01,-3.059675097465515137e-01,6.700000000000000000e+01
3.754025291246877714e+03,3.728633470965294691e+03,5.358617460003991255e+03,6.571240552962731272e+03,3.378005523390837425e+03,3.614963734382095936e+03,1.048328794478516465e+04,4.949736683173880010e+03,9.484992027282714844e+00,2.294756323099136353e-01,-3.059675097465515137e-01,6.800000000000000000e+01
3.739220345199587427e+03,3.708161763420509487e+03,5.324118698302752819e+03,6.633054142867385963e+03,3.365751132416948167e+03,3.591157760193070317e+03,1.051364561316824074e+04,4.904659995400070329e+03,9.484992027282714844e+00,2.294756323099136353e-01,-3.059675097465515137e-01,6.900000000000000000e+01
3.787199352970166274e+03,3.765146822558502208e+03,5.365508732549285014e+03,6.605676152653541067e+03,3.403584845326458890e+03,3.637466509241385211e+03,1.069407305416854797e+04,4.979340247356512009e+03,9.484992027282714844e+00,2.294756323099136353e-01,-3.059675097465515137e-01,7.000000000000000000e+01
3.876084295558956001e+03,3.863531885565376342e+03,5.459458510221289544e+03,6.552249961319356771e+03,3.480180179136986226e+03,3.729218935413513464e+03,1.054596218440217490e+04,5.100900240415958251e+03,9.484992027282714844e+00,2.294756323099136353e-01,-3.059675097465515137e-01,7.100000000000000000e+01
3.923904424937393287e+03,3.907587940534555401e+03,5.508432266263632300e+03,6.568907528988930608e+03,3.530234592539066398e+03,3.777283147669099435e+03,1.030561709820584656e+04,5.130520270246359360e+03,9.484992027282714844e+00,2.294756323099136353e-01,-3.059675097465515137e-01,7.200000000000000000e+01
3.902718985387509292e+03,3.874233163011295801e+03,5.476270638980849981e+03,6.652087002950622264e+03,3.524023503057058406e+03,3.751472871200462578e+03,1.041807980537761978e+04,5.055194267797050998e+03,9.484992027282714844e+00,2.294756323099136353e-01,-3.059675097465515137e-01,7.300000000000000000e+01
3.876960815056090269e+03,3.844576539835440144e+03,5.437719447476183632e+03,6.703785242424464741e+03,3.507238222142448194e+03,3.721910912158930842e+03,1.065380705130774732e+04,5.004399196663313887e+03,9.484992027282714844e+00,2.294756323099136353e-01,-3.059675097465515137e-01,7.400000000000000000e+01
3.913172243508266547e+03,3.892292642873093882e+03,5.473540003196469115e+03,6.666985798341991540e+03,3.537149843785834491e+03,3.762296671452205828e+03,1.055797220873217339e+04,5.070328464576899023e+03,9.484992027282714844e+00,2.294756323099136353e-01,-3.059675097465515137e-01,7.500000000000000000e+01
3.989029006764779297e+03,3.983033965511450333e+03,5.558559254444063299e+03,6.604519057921434069e+03,3.603820814534561123e+03,3.848443494579617891e+03,1.023001906542538927e+04,5.181263941723074822e+03,9.484992027282714844e+00,2.294756323099136353e-01,-3.059675097465515137e-01,7.600000000000000000e+01
4.026923910402259935e+03,4.022407034523393577e+03,5.597952287644721764e+03,6.612520614668309463e+03,3.644706332906270291e+03,3.891364853963722908e+03,1.017459595294595238e+04,5.201805597433634830e+03,9.484992027282714844e+00,2.294756323099136353e-01,-3.059675097465515137e-01,7.700000000000000000e+01
4.002273487843748171e+03,3.986046441328328001e+03,5.559054507564700543e+03,6.687342865261378392e+03,3.631602063247490150e+03,3.859668702825347737e+03,1.063296819857392074e+04,5.119957110728006228e+03,9.484992027282714844e+00,2.294756323099136353e-01,-3.059675097465515137e-01,7.800000000000000000e+01
3.976683640761547395e+03,3.953158684536530927e+03,5.515190769250733865e+03,6.730382441703633049e+03,3.609415687660607091e+03,3.822759821793974879e+03,1.126082591542595219e+04,5.062926738113023021e+03,9.484992027282714844e+00,2.677215635776519775e-01,-3.442134261131286621e-01,7.900000000000000000e+01
4.012539315251016887e+03,3.997089042428306129e+03,5.543465773825376345e+03,6.684900649236852587e+03,3.633775767654059109e+03,3.854929336206896551e+03,1.151212311114195654e+04,5.121365530558752653e+03,9.484992027282714844e+00,2.677215635776519775e-01,-3.442134261131286621e-01,8.000000000000000000e+01
4.086850473959520514e+03,4.082943621246713519e+03,5.619424217739193409e+03,6.614618354797352367e+03,3.694324920396130892e+03,3.932521403863694559e+03,1.132563991500900374e+04,5.224756986658791902e+03,9.484992027282714844e+00,2.677215635776519775e-01,-3.442134261131286621e-01,8.100000000000000000e+01
4.121988366631820099e+03,4.114636110171011751e+03,5.651628843690558824e+03,6.614611831595746480e+03,3.729213227685766469e+03,3.966451435318735548e+03,1.115493883253913737e+04,5.238745636256975558e+03,9.484992027282714844e+00,2.677215635776519775e-01,-3.442134261131286621e-01,8.200000000000000000e+01
4.092108603538572879e+03,4.068469753358261187e+03,5.606708878788579568e+03,6.679462035054040825e+03,3.710222666173283869e+03,3.925726915268259290e+03,1.125617912100447211e+04,5.150349147232580435e+03,9.484992027282714844e+00,2.677215635776519775e-01,-3.442134261131286621e-01,8.300000000000000000e+01
4.059228372971705539e+03,4.027263787456104183e+03,5.554282658555138369e+03,6.712277364574862986e+03,3.681414281090245822e+03,3.881083723129333976e+03,1.137331743704837208e+04,5.086287603266912811e+03,9.484992027282714844e+00,2.677215635776519775e-01,-3.442134261131286621e-01,8.400000000000000000e+01
4.087348434026211180e+03,4.065197590985318129e+03,5.571529157312445932e+03,6.659738132676228815e+03,3.698754614975941877e+03,3.907745794229365856e+03,1.125519106875343641e+04,5.138816587624509339e+03,9.484992027282714844e+00,2.677215635776519775e-01,-3.442134261131286621e-01,8.500000000000000000e+01
4.152684822314466146e+03,4.143883036388919209e+03,5.637581337947826796e+03,6.584803197619877210e+03,3.753672243104034806e+03,3.981446873000237701e+03,1.104869344330730746e+04,5.238563626741400185e+03,9.484992027282714844e+00,2.677215635776519775e-01,-3.442134261131286621e-01,8.600000000000000000e+01
4.176266301730693158e+03,4.166060518701060573e+03,5.662075643897880582e+03,6.579001820225379561e+03,3.784936576738911299e+03,4.011827579410858561e+03,1.100384272458714258e+04,5.250033382520419764e+03,9.484992027282714844e+00,2.677215635776519775e-01,-3.442134261131286621e-01,8.700000000000000000e+01
4.134557479619943479e+03,4.111598654621818241e+03,5.610055437555979552e+03,6.637062262936900879e+03,3.762488699507559431e+03,3.967289988627963794e+03,1.108492506427347689e+04,5.158341870176880548e+03,9.484992027282714844e+00,2.677215635776519775e-01,-3.442134261131286621e-01,8.800000000000000000e+01
4.092943249132250003e+03,4.065490820701537814e+03,5.551469379982973805e+03,6.664948279080931570e+03,3.728270322477631908e+03,3.918154531689320720e+03,1.111172436493588793e+04,5.088618772837966389e+03,9.484992027282714844e+00,2.677215635776519775e-01,-3.442134261131286621e-01,8.900000000000000000e+01
4.115179665999758981e+03,4.100569442772063667e+03,5.564858344027094972e+03,6.608799078780526543e+03,3.737897287750213309e+03,3.938636799194231571e+03,1.100318539297340249e+04,5.131695826073028002e+03,9.484992027282714844e+00,2.677215635776519775e-01,-3.442134261131286621e-01,9.000000000000000000e+01
4.175596077952428459e+03,4.178574017892847223e+03,5.627411944670709090e+03,6.528788339848969372e+03,3.783589516066057968e+03,4.004314821755501725e+03,1.083727807379516344e+04,5.218551204225664151e+03,9.484992027282714844e+00,2.677215635776519775e-01,-3.442134261131286621e-01,9.100000000000000000e+01
4.195173734675227024e+03,4.203577485820253060e+03,5.645425028210040182e+03,6.516980754958297439e+03,3.805170694608137637e+03,4.026810728523335456e+03,1.075725501791617353e+04,5.216968496808109194e+03,9.484992027282714844e+00,2.677215635776519775e-01,-3.442134261131286621e-01,9.200000000000000000e+01
4.150264798509209868e+03,4.151868640680081626e+03,5.584549202411640181e+03,6.570536642740828938e+03,3.774263688416039258e+03,3.976538436087201717e+03,1.080828371959599463e+04,5.115397704383794917e+03,9.484992027282714844e+00,2.677215635776519775e-01,-3.442134261131286621e-01,9.300000000000000000e+01
4.104367368852605068e+03,4.101459382326167542e+03,5.517898401425987686e+03,6.594609506430493639e+03,3.734581165673917440e+03,3.923510287492053521e+03,1.085736932394273390e+04,5.039634349633247439e+03,9.484992027282714844e+00,2.677215635776519775e-01,-3.442134261131286621e-01,9.400000000000000000e+01
4.120651838782885534e+03,4.123789248574109479e+03,5.524188971881784710e+03,6.532578302179879756e+03,3.741958546994731478e+03,3.940612078101522457e+03,1.075585183417182634e+04,5.080119507030542991e+03,9.484992027282714844e+00,2.677215635776519775e-01,-3.442134261131286621e-01,9.500000000000000000e+01
4.175685011232319084e+03,4.186634131253420492e+03,5.578819091862265850e+03,6.444304658742240463e+03,3.787333555952451206e+03,4.002982673693081779e+03,1.056119325754199781e+04,5.167740577238493643e+03,9.484992027282714844e+00,2.677215635776519775e-01,-3.442134261131286621e-01,9.600000000000000000e+01
4.192336124977382497e+03,4.200047739191959408e+03,5.589877580835461231e+03,6.423317628131555466e+03,3.809396005506038819e+03,4.021985077210264080e+03,1.046771175333934661e+04,5.168462345082074535e+03,9.484992027282714844e+00,2.677215635776519775e-01,-3.442134261131286621e-01,9.700000000000000000e+01
4.146426861828511392e+03,4.141394160969113727e+03,5.526886474569191705e+03,6.467318493645099807e+03,3.779007240110497150e+03,3.967379016309343115e+03,1.052429135217681687e+04,5.067161106719423515e+03,9.484992027282714844e+00,2.677215635776519775e-01,-3.442134261131286621e-01,9.800000000000000000e+01
4.099419171464659485e+03,4.086901868306765664e+03,5.461650912737832186e+03,6.482084587637622462e+03,3.738558553285426115e+03,3.909150471886442574e+03,1.056457226374499623e+04,4.987967364669697417e+03,9.484992027282714844e+00,2.677215635776519775e-01,-3.442134261131286621e-01,9.900000000000000000e+01
4.111876302634023887e+03,4.106158971103808653e+03,5.466736456068784719e+03,6.412969708273171818e+03,3.742718997244336606e+03,3.920619727905409945e+03,1.044809004895660837e+04,5.022576367048348402e+03,9.484992027282714844e+00,2.677215635776519775e-01,-3.442134261131286621e-01,1.000000000000000000e+02
4.159208885291109254e+03,4.165809719179720560e+03,5.515254916897904877e+03,6.320700088613278240e+03,3.783126744158396832e+03,3.977009538122993035e+03,1.025369322406101855e+04,5.103425802750310140e+03,9.484992027282714844e+00,2.677215635776519775e-01,-3.442134261131286621e-01,1.010000000000000000e+02
4.167232629611255106e+03,4.175894203950269002e+03,5.519569601119332219e+03,6.296573383659346291e+03,3.800579960732717609e+03,3.990549696872320055e+03,1.016346832295427521e+04,5.097909933665167955e+03,9.484992027282714844e+00,2.677215635776519775e-01,-3.442134261131286621e-01,1.020000000000000000e+02
4.115893366141079241e+03,4.114229474264008786e+03,5.452692305885279893e+03,6.335623262413149860e+03,3.767210432834173844e+03,3.932966801585703251e+03,1.021302014257459814e+04,4.993243380443980641e+03,9.484992027282714844e+00,2.677215635776519775e-01,-3.442134261131286621e-01,1.030000000000000000e+02
4.065843274886537529e+03,4.056167907925520012e+03,5.384759972790086977e+03,6.344071227126629310e+03,3.724829689427477661e+03,3.874578630035892274e+03,1.024642633347878473e+04,4.914259371041081977e+03,9.446745872497558594e+00,1.147378161549568176e-01,-3.824593424797058105e-01,1.040000000000000000e+02
4.073667556704509025e+03,4.069286950321088170e+03,5.385896197067813773e+03,6.270024899463514885e+03,3.726508282489036901e+03,3.886812914418956098e+03,1.013033625117315387e+04,4.949440195853756450e+03,9.446745872497558594e+00,1.147378161549568176e-01,-3.824593424797058105e-01,1.050000000000000000e+02
4.114849955664070876e+03,4.119881237044102818e+03,5.429332412899391784e+03,6.175554678331619471e+03,3.762470498473321641e+03,3.944209543127140478e+03,9.936304095636529382e+03,5.028033289282553596e+03,9.446745872497558594e+00,1.147378161549568176e-01,-3.824593424797058105e-01,1.060000000000000000e+02
4.118211653034466508e+03,4.120550374486178043e+03,5.427646063735417556e+03,6.150765321869619584e+03,3.773390252218535807e+03,3.959832400431097994e+03,9.842751524616778624e+03,5.018556624440376254e+03,9.446745872497558594e+00,1.147378161549568176e-01,-3.824593424797058105e-01,1.070000000000000000e+02
4.062890863995080053e+03,4.052306133359700652e+03,5.353331125165553203e+03,6.189613761809693642e+03,3.733020531346644475e+03,3.903814013346624051e+03,9.888834150390575815e+03,4.910592760443007137e+03,9.446745872497558594e+00,1.147378161549568176e-01,-3.824593424797058105e-01,1.080000000000000000e+02
4.006993714707646632e+03,3.991745486773219454e+03,5.278002244238532512e+03,6.198917598430529324e+03,3.685002320885772406e+03,3.842937055977468390e+03,9.917614607525581960e+03,4.827854055456851711e+03,9.446745872497558594e+00,1.147378161549568176e-01,-3.824593424797058105e-01,1.090000000000000000e+02
4.009752297321369952e+03,4.005748107922651343e+03,5.274720257361791482e+03,6.126533011885426276e+03,3.682098955970084717e+03,3.848107821142296416e+03,9.794773198894061352e+03,4.856342355260523618e+03,9.446745872497558594e+00,1.147378161549568176e-01,-3.824593424797058105e-01,1.100000000000000000e+02
4.051323342969510577e+03,4.059066325022099136e+03,5.317316995387453062e+03,6.031408353791803165e+03,3.712549461478722151e+03,3.896136075163455189e+03,9.594578181868633692e+03,4.925983787692292026e+03,9.446745872497558594e+00,1.147378161549568176e-01,-3.824593424797058105e-01,1.110000000000000000e+02
4.059239452770480511e+03,4.062065977202757040e+03,5.316183287979827583e+03,6.000780848607259031e+03,3.716510880475574595e+03,3.900985191822559955e+03,9.496737853555818219e+03,4.908155557902078726e+03,9.446745872497558594e+00,1.147378161549568176e-01,-3.824593424797058105e-01,1.120000000000000000e+02
4.007633243651993325e+03,3.993464023738885317e+03,5.241521881637085244e+03,6.029958717098964371e+03,3.669629705368804935e+03,3.833467078841261355e+03,9.537734599820625590e+03,4.793751046609419063e+03,9.446745872497558594e+00,1.147378161549568176e-01,-3.824593424797058105e-01,1.130000000000000000e+02
3.953138351273539683e+03,3.929869796258466977e+03,5.163802654954099125e+03,6.029757932056676509e+03,3.616965916247315818e+03,3.763771405638486158e+03,9.561083815474898074e+03,4.705945937903058621e+03,9.446745872497558594e+00,1.147378161549568176e-01,-3.824593424797058105e-01,1.140000000000000000e+02
3.955891611415978787e+03,3.941069795388228158e+03,5.156185612128221692e+03,5.950471510953218967e+03,3.610370936827544938e+03,3.765246129807319903e+03,9.434331002924292989e+03,4.730189739320412627e+03,9.446745872497558594e+00,1.147378161549568176e-01,-3.824593424797058105e-01,1.150000000000000000e+02
3.994773982448196421e+03,3.993795617132334428e+03,5.193800031798289638e+03,5.851552960887029258e+03,3.636990484153569014e+03,3.812476960456054258e+03,9.232079047785311559e+03,4.796416614936985752e+03,9.446745872497558594e+00,1.147378161549568176e-01,-3.824593424797058105e-01,1.160000000000000000e+02
3.995902374917272937e+03,3.996498741724064530e+03,5.187830901927889499e+03,5.820579450135323896e+03,3.637736582057284977e+03,3.817146936159890174e+03,9.132743697043064458e+03,4.776480703372331845e+03,9.446745872497558594e+00,1.147378161549568176e-01,-3.824593424797058105e-01,1.170000000000000000e+02
3.935334314883025399e+03,3.925342356027094411e+03,5.107630778369097243e+03,5.852139141783422019e+03,3.589185353553345067e+03,3.751353349119568065e+03,9.172159203876799438e+03,4.661867493372966237e+03,9.446745872497558594e+00,1.147378161549568176e-01,-3.824593424797058105e-01,1.180000000000000000e+02
3.873116807821736984e+03,3.857922735314741203e+03,5.023579004121977050e+03,5.854128256889407567e+03,3.535557737097641166e+03,3.684848246725767240e+03,9.194374403370351502e+03,4.575081383668366470e+03,9.446745872497558594e+00,1.147378161549568176e-01,-3.824593424797058105e-01,1.190000000000000000e+02
3.871430110825140218e+03,3.866281588380426001e+03,5.011121343667176916e+03,5.774226886817041304e+03,3.527699500903953776e+03,3.686205954132896295e+03,9.067040465289899657e+03,4.599591054242704558e+03,9.446745872497558594e+00,1.147378161549568176e-01,-3.824593424797058105e-01,1.200000000000000000e+02
3.909193456566989425e+03,3.916523114607284697e+03,5.047017365861212056e+03,5.672076582673702433e+03,3.553708085926292824e+03,3.728220499329604991e+03,8.863735931432440339e+03,4.664599235805324497e+03,9.446745872497558594e+00,1.147378161549568176e-01,-3.824593424797058105e-01,1.210000000000000000e+02
3.910291265602090789e+03,3.915538196978067390e+03,5.041257221211573778e+03,5.636511711871008629e+03,3.555879342768924744e+03,3.727156211208589411e+03,8.761975191404166253e+03,4.643239824396638141e+03,9.446745872497558594e+00,1.147378161549568176e-01,-3.824593424797058105e-01,1.220000000000000000e+02
3.848214665576522748e+03,3.840528726725965953e+03,4.961771271943911415e+03,5.662351575238267287e+03,3.509977298911829166e+03,3.658430783204922591e+03,8.798100876913244065e+03,4.527425953110281625e+03,9.446745872497558594e+00,1.147378161549568176e-01,-3.824593424797058105e-01,1.230000000000000000e+02
3.783890281236616829e+03,3.769956028758088905e+03,4.878965809417140008e+03,5.658240533438211060e+03,3.458113491299428460e+03,3.589822889827199106e+03,8.817647653952088149e+03,4.438479997806764914e+03,9.446745872497558594e+00,1.147378161549568176e-01,-3.824593424797058105e-01,1.240000000000000000e+02
3.781951206501448269e+03,3.772966224025186420e+03,4.867653787265529900e+03,5.574165974849944178e+03,3.450619819573838868e+03,3.588829132725595173e+03,8.689070116200400662e+03,4.460273421554773449e+03,9.446745872497558594e+00,1.147378161549568176e-01,-3.824593424797058105e-01,1.250000000000000000e+02
3.819595599286461493e+03,3.813211782979100462e+03,4.902807027256276342e+03,5.470725401583254097e+03,3.476685577089712751e+03,3.630829767723050281e+03,8.485190041732807003e+03,4.524371195956784504e+03,9.446745872497558594e+00,1.147378161549568176e-01,-3.824593424797058105e-01,1.260000000000000000e+02
3.817073846404885899e+03,3.801205355553699064e+03,4.893844772106292112e+03,5.434771375654479016e+03,3.478632540370253082e+03,3.632817376891008280e+03,8.382338381274152198e+03,4.504246777936821672e+03,9.446745872497558594e+00,1.147378161549568176e-01,-3.824593424797058105e-01,1.270000000000000000e+02
3.749498992328572967e+03,3.720141642782883537e+03,4.809564689122102209e+03,5.459780728601807823e+03,3.430538374908795049e+03,3.567477377884232283e+03,8.416992813683515124e+03,4.389423573959025816e+03,9.446745872497558594e+00,1.147378161549568176e-01,-3.824593424797058105e-01,1.280000000000000000e+02
3.681879853570632349e+03,3.649039906126667120e+03,4.720996202497155537e+03,5.456178391343264593e+03,3.373788016124515707e+03,3.501032330154112969e+03,8.436089859931835235e+03,4.300105903909928202e+03,9.446745872497558594e+00,1.147378161549568176e-01,-3.824593424797058105e-01,1.290000000000000000e+02
3.677609176539176588e+03,3.652788541720745343e+03,4.703869742587364271e+03,5.375168069317248410e+03,3.360659789919120158e+03,3.501057527190249857e+03,8.308918701013672035e+03,4.321161810763273934e+03,9.446745872497558594e+00,1.147378161549568176e-01,-3.824593424797058105e-01,1.300000000000000000e+02
3.711035934994098170e+03,3.692988479501370421e+03,4.735368319431821874e+03,5.274588949423583472e+03,3.382694423947925316e+03,3.541510329533845834e+03,8.107387737952448333e+03,4.384019682123149323e+03,9.446745872497558594e+00,3.059675097465515137e-01,-3.059675097465515137e-01,1.310000000000000000e+02
3.705674240779118009e+03,3.681765703048705745e+03,4.726578169709193389e+03,5.237976180281168126e+03,3.382148699445800958e+03,3.538142117533867349e+03,8.006061466541462323e+03,4.360898714858278254e+03,9.446745872497558594e+00,3.059675097465515137e-01,-3.059675097465515137e-01,1.320000000000000000e+02
3.640300139557785315e+03,3.602917164779423729e+03,4.645293341025064365e+03,5.259444826942242798e+03,3.331593185963674841e+03,3.465446381687929716e+03,8.040586964462370815e+03,4.241936828057181629e+03,9.446745872497558594e+00,3.059675097465515137e-01,-3.059675097465515137e-01,1.330000000000000000e+02
3.575202658624305059e+03,3.533981155035785378e+03,4.559428487678749661e+03,5.252130924036228862e+03,3.272096989433897761e+03,3.391939072973126713e+03,8.058707168393405482e+03,4.148865020143989568e+03,9.446745872497558594e+00,3.059675097465515137e-01,-3.059675097465515137e-01,1.340000000000000000e+02
3.567507600943092257e+03,3.539925960336570824e+03,4.541640506333603298e+03,5.168073406914866609e+03,3.256468745661581124e+03,3.385629908240399345e+03,7.931045969962784511e+03,4.165996984672818144e+03,9.446745872497558594e+00,3.059675097465515137e-01,-3.059675097465515137e-01,1.350000000000000000e+02
3.594240154861859992e+03,3.583968765823166905e+03,4.568414887224371341e+03,5.064935318089340399e+03,3.275894847780580676e+03,3.421252017755382440e+03,7.729585347814630950e+03,4.223822045834138407e+03,9.446745872497558594e+00,3.059675097465515137e-01,-3.059675097465515137e-01,1.360000000000000000e+02
3.585336551640467860e+03,3.577074943957627966e+03,4.553690637935385894e+03,5.027194809028055715e+03,3.272578673722684471e+03,3.415859363411314916e+03,7.627541460747812380e+03,4.196315734228272959e+03,9.446745872497558594e+00,3.059675097465515137e-01,-3.059675097465515137e-01,1.370000000000000000e+02
3.519643900280525031e+03,3.499098202027972548e+03,4.469170100847948561e+03,5.049072618318561581e+03,3.220937829898576638e+03,3.342763692393354177e+03,7.659758251200895756e+03,4.075588149668798906e+03,9.446745872497558594e+00,3.059675097465515137e-01,-3.059675097465515137e-01,1.380000000000000000e+02
3.453920841482857213e+03,3.426219686037969950e+03,4.383555050114468031e+03,5.041442380329781372e+03,3.163255592457182502e+03,3.268286955595394829e+03,7.675070546328073760e+03,3.981851175921586218e+03,9.446745872497558594e+00,3.059675097465515137e-01,-3.059675097465515137e-01,1.390000000000000000e+02
3.445211568428086139e+03,3.426532319015872417e+03,4.367238738214215118e+03,4.955028277921399422e+03,3.150076008908894437e+03,3.261219516199899772e+03,7.545732616071924895e+03,3.996924673543443987e+03,9.446745872497558594e+00,3.059675097465515137e-01,-3.059675097465515137e-01,1.400000000000000000e+02
3.471954124517479158e+03,3.466720553895429475e+03,4.395169979043816966e+03,4.849412726368097537e+03,3.169567332992080992e+03,3.297985415762124831e+03,7.344104620891156628e+03,4.052246393759871353e+03,9.446745872497558594e+00,3.059675097465515137e-01,-3.059675097465515137e-01,1.410000000000000000e+02
3.463098043047842566e+03,3.458768630191276316e+03,4.381399912982153182e+03,4.810777088586988611e+03,3.164216553824428047e+03,3.294129487635683290e+03,7.242848578885218558e+03,4.024480757697514491e+03,9.446745872497558594e+00,3.059675097465515137e-01,-3.059675097465515137e-01,1.420000000000000000e+02
3.396428748170732888e+03,3.382354259994455788e+03,4.297144983047825008e+03,4.832171579505918089e+03,3.110489685844551786e+03,3.220852578124905449e+03,7.276341959731052157e+03,3.905688320948262117e+03,9.446745872497558594e+00,3.059675097465515137e-01,-3.059675097465515137e-01,1.430000000000000000e+02
3.329323424741934559e+03,3.312453370323424679e+03,4.210016616720919956e+03,4.823376578417508426e+03,3.050949593128507331e+03,3.145703389298048933e+03,7.292865219586989042e+03,3.813962039449497752e+03,9.446745872497558594e+00,3.059675097465515137e-01,-3.059675097465515137e-01,1.440000000000000000e+02
3.318531270587683139e+03,3.313742270608936451e+03,4.190712893176509169e+03,4.736263194189401474e+03,3.035802591574461076e+03,3.139464566590906543e+03,7.163892487770084699e+03,3.830808734134845508e+03,9.446745872497558594e+00,3.059675097465515137e-01,-3.059675097465515137e-01,1.450000000000000000e+02
3.341088595442596670e+03,3.349907011802672969e+03,4.215725176367707718e+03,4.630957941078938347e+03,3.054802187808772942e+03,3.178077120519860728e+03,6.961545441821533132e+03,3.889001365310843994e+03,9.446745872497558594e+00,3.059675097465515137e-01,-3.059675097465515137e-01,1.460000000000000000e+02
3.326477922279570976e+03,3.334506349899457746e+03,4.200248321960410976e+03,4.592154568247166026e+03,3.051796546163275707e+03,3.176301427334851724e+03,6.859007908147557828e+03,3.864752063819313207e+03,9.446745872497558594e+00,3.059675097465515137e-01,-3.059675097465515137e-01,1.470000000000000000e+02
3.255016986138421998e+03,3.251593763480755115e+03,4.115894890163285709e+03,4.612527006356090169e+03,3.001258569590972002e+03,3.105658220114832147e+03,6.891464379768771323e+03,3.747681932528763355e+03,9.446745872497558594e+00,3.059675097465515137e-01,-3.059675097465515137e-01,1.480000000000000000e+02
3.186113063646170303e+03,3.177787484094404135e+03,4.029949579431913662e+03,4.603474824772294596e+03,2.942419982779940256e+03,3.032212951567273194e+03,6.908229767825300769e+03,3.654691935057909177e+03,9.446745872497558594e+00,3.059675097465515137e-01,-3.059675097465515137e-01,1.490000000000000000e+02
3.177351207927414180e+03,3.176366683739835025e+03,4.011790209120296822e+03,4.516912690901313908e+03,2.924636725375388778e+03,3.023602657708652259e+03,6.781546785412239842e+03,3.668408139432035568e+03,9.446745872497558594e+00,3.059675097465515137e-01,-3.059675097465515137e-01,1.500000000000000000e+02
3.205236391847721279e+03,3.211022987723727965e+03,4.036638536049566483e+03,4.410805461761720835e+03,2.938885290407849425e+03,3.056050015796057778e+03,6.582677800794313953e+03,3.723040797387117891e+03,9.446745872497558594e+00,3.059675097465515137e-01,-3.059675097465515137e-01,1.510000000000000000e+02
3.196237451838675952e+03,3.197104421768826796e+03,4.019889561451715963e+03,4.369383364638441890e+03,2.929943872499500685e+03,3.048863851215906834e+03,6.482683087729470572e+03,3.695740291230795265e+03,9.446745872497558594e+00,3.059675097465515137e-01,-3.059675097465515137e-01,1.520000000000000000e+02
3.126579260204757702e+03,3.117996658682569432e+03,3.934128593799888677e+03,4.387293654261291522e+03,2.873362600137090340e+03,2.976490632135337364e+03,6.515913878383308656e+03,3.577314454536644007e+03,9.446745872497558594e+00,3.059675097465515137e-01,-3.059675097465515137e-01,1.530000000000000000e+02
3.054708792005246323e+03,3.046878545895657226e+03,3.847091140842735058e+03,4.376618605138521161e+03,2.810673225466594886e+03,2.903242529269212355e+03,6.533063911568314325e+03,3.485225594178428310e+03,9.446745872497558594e+00,3.059675097465515137e-01,-3.059675097465515137e-01,1.540000000000000000e+02
3.041572918201447465e+03,3.045836944165300338e+03,3.828650115716589426e+03,4.288114328688789101e+03,2.792772520968794197e+03,2.894239269609283838e+03,6.408013610005318696e+03,3.500610955241475494e+03,9.446745872497558594e+00,3.059675097465515137e-01,-3.059675097465515137e-01,1.550000000000000000e+02
3.067583942523444421e+03,3.081124110947537702e+03,3.854947935005548061e+03,4.180143338205940381e+03,2.809100841632165611e+03,2.925622174114382688e+03,6.212480317311659746e+03,3.555571249216383876e+03,9.446745872497558594e+00,3.059675097465515137e-01,-3.059675097465515137e-01,1.560000000000000000e+02
3.060041097587096374e+03,3.069488572597853818e+03,3.841006932034455076e+03,4.138837439277289377e+03,2.801381880684317366e+03,2.917114904321537324e+03,6.117016053703709076e+03,3.526908901766132658e+03,9.446745872497558594e+00,3.059675097465515137e-01,-3.059675097465515137e-01,1.570000000000000000e+02
2.993349266031770640e+03,2.992035262397239421e+03,3.757195046136426299e+03,4.158787507832441406e+03,2.743940982801318569e+03,2.842625031289034268e+03,6.154710788389506888e+03,3.406360850829184074e+03,9.446745872497558594e+00,3.059675097465515137e-01,-3.059675097465515137e-01,1.580000000000000000e+02
2.923895533038301437e+03,2.920133961704746071e+03,3.669826886880716302e+03,4.150433759767931406e+03,2.679570149113923435e+03,2.767173508184420825e+03,6.174888895485263674e+03,3.312095948285270424e+03,9.446745872497558594e+00,3.059675097465515137e-01,-3.059675097465515137e-01,1.590000000000000000e+02
2.911467826720868288e+03,2.917379892919660051e+03,3.649919879012686124e+03,4.064525071182256397e+03,2.661096991788000196e+03,2.758203626484816596e+03,6.051461581954130452e+03,3.326245887331700033e+03,9.446745872497558594e+00,3.059675097465515137e-01,-3.059675097465515137e-01,1.600000000000000000e+02
2.936169137217835669e+03,2.951493545983767035e+03,3.675300737720966026e+03,3.960131533009448049e+03,2.679175847880661422e+03,2.792086346218425206e+03,5.857222392319385108e+03,3.382345335252451150e+03,9.446745872497558594e+00,3.059675097465515137e-01,-3.059675097465515137e-01,1.610000000000000000e+02
2.926399355301556170e+03,2.938414273058001982e+03,3.661183878058537630e+03,3.921920652083890673e+03,2.675392988429157413e+03,2.785638635072382385e+03,5.762518738538738035e+03,3.356968058214393750e+03,9.484992027282714844e+00,3.059675097465515137e-01,-3.059675097465515137e-01,1.620000000000000000e+02
2.859059013567944930e+03,2.859226447075906435e+03,3.577558414721439021e+03,3.942858260856606648e+03,2.622113561137608485e+03,2.711055616926681978e+03,5.799095773641745836e+03,3.239329625227816905e+03,9.484992027282714844e+00,3.059675097465515137e-01,-3.059675097465515137e-01,1.630000000000000000e+02
2.791544485155137409e+03,2.787361635974710225e+03,3.490626797463724415e+03,3.934963959778902336e+03,2.559396204325698818e+03,2.634996828514848858e+03,5.816760494253921024e+03,3.145467090579660635e+03,9.484992027282714844e+00,3.059675097465515137e-01,-3.059675097465515137e-01,1.640000000000000000e+02
2.780712025617474865e+03,2.786818870479016368e+03,3.470474646849869714e+03,3.851183478373777234e+03,2.539184297265658643e+03,2.626158224640568733e+03,5.691943820832383608e+03,3.157516312697278863e+03,9.484992027282714844e+00,3.059675097465515137e-01,-3.059675097465515137e-01,1.650000000000000000e+02
2.803155142040111059e+03,2.822788525955969817e+03,3.493655916545464606e+03,3.749377247123116831e+03,2.554003387712175936e+03,2.659770731564156449e+03,5.498494019552500504e+03,3.210151472832822037e+03,9.484992027282714844e+00,3.059675097465515137e-01,-3.059675097465515137e-01,1.660000000000000000e+02
2.788298585384589387e+03,2.809322417457826759e+03,3.476240648010787936e+03,3.711997580569938236e+03,2.548028245578390852e+03,2.652762771045048794e+03,5.405124853337887544e+03,3.181866664269157809e+03,9.484992027282714844e+00,3.059675097465515137e-01,-3.059675097465515137e-01,1.670000000000000000e+02
2.716865699295310151e+03,2.727722469859727426e+03,3.390663400498724059e+03,3.732908396963927771e+03,2.495137029200913730e+03,2.580021202317834650e+03,5.442349892952130176e+03,3.064726578709744444e+03,9.484992027282714844e+00,3.059675097465515137e-01,-3.059675097465515137e-01,1.680000000000000000e+02
2.647473225691471271e+03,2.651851217506280591e+03,3.303662654438320715e+03,3.726036809245594213e+03,2.435672878056171157e+03,2.508548734015028458e+03,5.461107418882590537e+03,2.975662131585670068e+03,9.484992027282714844e+00,3.059675097465515137e-01,-3.059675097465515137e-01,1.690000000000000000e+02
2.636080279009023798e+03,2.646527046246949340e+03,3.283906018843175389e+03,3.643523000860489446e+03,2.420059670963800727e+03,2.503014853617068184e+03,5.338971206502234054e+03,2.993127832404587934e+03,9.484992027282714844e+00,3.059675097465515137e-01,-3.059675097465515137e-01,1.700000000000000000e+02
2.659697075460532687e+03,2.679248825992329330e+03,3.307924431828098022e+03,3.541710092157864892e+03,2.437475267624976368e+03,2.536177936305368348e+03,5.148486918686725403e+03,3.047498043539153059e+03,9.484992027282714844e+00,3.059675097465515137e-01,-3.059675097465515137e-01,1.710000000000000000e+02
2.647694406619312758e+03,2.665707376609605944e+03,3.292919781437296933e+03,3.503958739411585157e+03,2.430095449763904981e+03,2.527910456450184029e+03,5.056287265772251885e+03,3.018148840347193072e+03,9.484992027282714844e+00,3.059675097465515137e-01,-3.059675097465515137e-01,1.720000000000000000e+02
2.578195225498090622e+03,2.586391542419885354e+03,3.210314744079630600e+03,3.525322568138879888e+03,2.373689503833839808e+03,2.456067540200337589e+03,5.093325796802924742e+03,2.900887450843710667e+03,9.484992027282714844e+00,3.059675097465515137e-01,-3.059675097465515137e-01,1.730000000000000000e+02
2.508955512658479165e+03,2.513923425701227643e+03,3.124673388543359579e+03,3.518641490953070388e+03,2.311155821101249785e+03,2.385385242401764117e+03,5.113217212839144850e+03,2.812481709618934474e+03,9.484992027282714844e+00,3.059675097465515137e-01,-3.059675097465515137e-01,1.740000000000000000e+02
2.499049262245345744e+03,2.512359585748821701e+03,3.105063412407173018e+03,3.435105161114850034e+03,2.292302200084146989e+03,2.377439718284424998e+03,4.994929796778725176e+03,2.828289044760545039e+03,9.484992027282714844e+00,3.059675097465515137e-01,-3.059675097465515137e-01,1.750000000000000000e+02
2.526655174298877682e+03,2.546919160604305034e+03,3.129917731685512081e+03,3.332384166752599867e+03,2.305464797506476316e+03,2.407223452078969785e+03,4.809709038012707424e+03,2.879520116817143844e+03,9.484992027282714844e+00,3.059675097465515137e-01,-3.059675097465515137e-01,1.760000000000000000e+02
2.517482211898686273e+03,2.530846502548425633e+03,3.116337893664813237e+03,3.294781995887366065e+03,2.295730988084442288e+03,2.398586794230568557e+03,4.722589008995661970e+03,2.849917138612300732e+03,9.484992027282714844e+00,3.059675097465515137e-01,-3.059675097465515137e-01,1.770000000000000000e+02
2.447435154916583542e+03,2.446231608502964264e+03,3.034834039611430399e+03,3.316067064388834297e+03,2.241695336009280709e+03,2.327998217630447016e+03,4.764357828221323871e+03,2.735704740911838599e+03,9.484992027282714844e+00,3.059675097465515137e-01,-3.059675097465515137e-01,1.780000000000000000e+02
2.376691040438839536e+03,2.370199145125277937e+03,2.950640464832199541e+03,3.308479195582906868e+03,2.183809189423128373e+03,2.256082433831356411e+03,4.788501478433705415e+03,2.649305438276473978e+03,9.484992027282714844e+00,3.059675097465515137e-01,-3.059675097465515137e-01,1.790000000000000000e+02
2.366215964608229115e+03,2.368874799256387178e+03,2.932830529189719982e+03,3.225128491523640150e+03,2.167906986009937100e+03,2.245311527354250302e+03,4.672950860046135858e+03,2.664540915882592799e+03,9.484992027282714844e+00,3.059675097465515137e-01,-3.059675097465515137e-01,1.800000000000000000e+02
2.393504324871207700e+03,2.406544489262859770e+03,2.957766463572003886e+03,3.125077528760770747e+03,2.182851184869764893e+03,2.274693246807608375e+03,4.488661718672788993e+03,2.716107393433975176e+03,9.484992027282714844e+00,3.059675097465515137e-01,-3.059675097465515137e-01,1.810000000000000000e+02
2.384919750367584129e+03,2.395803481804020066e+03,2.942528797087681596e+03,3.091146744890756054e+03,2.175934154793638299e+03,2.267220988227790713e+03,4.401971316877945355e+03,2.689345162813399384e+03,9.484992027282714844e+00,3.059675097465515137e-01,-3.059675097465515137e-01,1.820000000000000000e+02
2.317677112055036559e+03,2.318215829142914117e+03,2.861279091943974436e+03,3.115176996491848513e+03,2.124274049418629602e+03,2.195312012835540372e+03,4.444874156290075007e+03,2.577150491617444459e+03,9.561484336853027344e+00,3.824593424797058105e-01,-2.677215635776519775e-01,1.830000000000000000e+02
2.249577223621236499e+03,2.248434493874023246e+03,2.780855781919749916e+03,3.109567770923266835e+03,2.066019734826908916e+03,2.120589991903182181e+03,4.471045173327334851e+03,2.489964574316082690e+03,9.561484336853027344e+00,3.824593424797058105e-01,-2.677215635776519775e-01,1.840000000000000000e+02
2.238211921979620911e+03,2.249705697550448349e+03,2.766740353911659895e+03,3.028263306266222116e+03,2.048657168669880321e+03,2.109885773570852507e+03,4.358753654253695458e+03,2.504740006626986087e+03,9.561484336853027344e+00,3.824593424797058105e-01,-2.677215635776519775e-01,1.850000000000000000e+02
2.262563210107975465e+03,2.285752967696836095e+03,2.791956573330690844e+03,2.929831045426517449e+03,2.063550508264025211e+03,2.141604101691953019e+03,4.179457205951480319e+03,2.558814326259559493e+03,9.561484336853027344e+00,3.824593424797058105e-01,-2.677215635776519775e-01,1.860000000000000000e+02
2.252926281253578964e+03,2.270712617156446413e+03,2.774787510067443236e+03,2.896353068316950612e+03,2.056923203338105850e+03,2.134991811949867497e+03,4.098367312448268422e+03,2.535199193980760811e+03,9.561484336853027344e+00,3.824593424797058105e-01,-2.677215635776519775e-01,1.870000000000000000e+02
2.186667122899538754e+03,2.188378377997741609e+03,2.691551585984381290e+03,2.920419254505445679e+03,2.004226042474399037e+03,2.063335736511527557e+03,4.144965319844573060e+03,2.423989387651555717e+03,9.561484336853027344e+00,3.824593424797058105e-01,-2.677215635776519775e-01,1.880000000000000000e+02
2.118884692205874217e+03,2.115334588782214269e+03,2.608883439163238108e+03,2.915704622145831763e+03,1.945142915553010425e+03,1.991139812863665611e+03,4.172037465928277925e+03,2.336992339300284129e+03,9.561484336853027344e+00,3.824593424797058105e-01,-2.677215635776519775e-01,1.890000000000000000e+02
2.106166596101889354e+03,2.115088685516969235e+03,2.592349891894233224e+03,2.836045387963088615e+03,1.929113669049626424e+03,1.982975340256239633e+03,4.059763644113797454e+03,2.353215579281505597e+03,9.561484336853027344e+00,3.824593424797058105e-01,-2.677215635776519775e-01,1.900000000000000000e+02
2.128259976404759982e+03,2.150138773762932942e+03,2.617091674509227232e+03,2.738858409677167401e+03,1.946650666162913694e+03,2.013770026192763453e+03,3.881576920286085624e+03,2.408506695636940549e+03,9.561484336853027344e+00,3.824593424797058105e-01,-2.677215635776519775e-01,1.910000000000000000e+02
2.116404069938150769e+03,2.134423617553889926e+03,2.602316594303845704e+03,2.705667693930460246e+03,1.942452871767206034e+03,2.005330863391507592e+03,3.802295363325486505e+03,2.383932484362278956e+03,9.561484336853027344e+00,3.824593424797058105e-01,-2.677215635776519775e-01,1.920000000000000000e+02
2.049740979815392166e+03,2.052801920019349382e+03,2.522616474708914211e+03,2.729474296198710817e+03,1.891922150158402928e+03,1.935156517468062702e+03,3.850042770892801855e+03,2.271263905029143643e+03,9.561484336853027344e+00,3.824593424797058105e-01,-2.677215635776519775e-01,1.930000000000000000e+02
1.984954124999071155e+03,1.981295022667344256e+03,2.443502910113202688e+03,2.724730170944239489e+03,1.834424835703499866e+03,1.866355480446824004e+03,3.877838440630615878e+03,2.184708867746661326e+03,9.561484336853027344e+00,3.824593424797058105e-01,-2.677215635776519775e-01,1.940000000000000000e+02
1.977174037039625546e+03,1.981483148407789486e+03,2.431310396123552891e+03,2.646057719343650660e+03,1.817863341098003275e+03,1.860302270430532189e+03,3.767305930631748197e+03,2.202172806865297389e+03,9.561484336853027344e+00,3.824593424797058105e-01,-2.677215635776519775e-01,1.950000000000000000e+02
2.002966872603094998e+03,2.016479060001545349e+03,2.460693421203819980e+03,2.551080028363045130e+03,1.832253777577710480e+03,1.892870378299756794e+03,3.592205530528251984e+03,2.257379098539133793e+03,9.561484336853027344e+00,3.824593424797058105e-01,-2.677215635776519775e-01,1.960000000000000000e+02
1.992957493061825971e+03,2.003100034697335559e+03,2.448377710203244533e+03,2.520503161493388689e+03,1.824239117924485527e+03,1.887534708972387762e+03,3.516165278468751239e+03,2.232700849569823731e+03,9.561484336853027344e+00,3.824593424797058105e-01,-2.677215635776519775e-01,1.970000000000000000e+02
1.928093690542644254e+03,1.926375820851363642e+03,2.368234151921833018e+03,2.546593166334592752e+03,1.771844992132696007e+03,1.820080478566364491e+03,3.566488398416423479e+03,2.122637254882992693e+03,9.561484336853027344e+00,3.824593424797058105e-01,-2.677215635776519775e-01,1.980000000000000000e+02
1.865610501997207393e+03,1.858981865292992552e+03,2.288064480219924917e+03,2.544244912452715653e+03,1.715328638930816396e+03,1.752095753586447245e+03,3.596720965759917817e+03,2.040590097241007697e+03,9.561484336853027344e+00,3.824593424797058105e-01,-2.677215635776519775e-01,1.990000000000000000e+02
1.859558564203990954e+03,1.860533242483753838e+03,2.276046774619149346e+03,2.468260357159197611e+03,1.701377491456188181e+03,1.746096432689339053e+03,3.489062876670840524e+03,2.060986438142010229e+03,9.561484336853027344e+00,3.824593424797058105e-01,-2.677215635776519775e-01,2.000000000000000000e+02
1.886220045249538089e+03,1.895691896743217967e+03,2.306737303529719156e+03,2.374863385690553969e+03,1.718441800573093587e+03,1.778348810728073204e+03,3.316706476565774210e+03,2.116494389825796134e+03,9.561484336853027344e+00,3.824593424797058105e-01,-2.677215635776519775e-01,2.010000000000000000e+02
1.876850503372046660e+03,1.882971966660442831e+03,2.297025297117337686e+03,2.344017688695472316e+03,1.712729876526230328e+03,1.771329975095414284e+03,3.242489155589696566e+03,2.091612549215928993e+03,9.561484336853027344e+00,3.824593424797058105e-01,-2.677215635776519775e-01,2.020000000000000000e+02
1.812508897243589672e+03,1.806855288159516476e+03,2.221029110684605712e+03,2.369948493165031323e+03,1.661961727915697793e+03,1.702005010989930270e+03,3.294182216170911488e+03,1.982143969460549442e+03,9.561484336853027344e+00,3.824593424797058105e-01,-2.677215635776519775e-01,2.030000000000000000e+02
1.750412354173849508e+03,1.739113725178577624e+03,2.144446403717351586e+03,2.369612268191372095e+03,1.605210771679842765e+03,1.634401154577693433e+03,3.326604023340375534e+03,1.900672987497228178e+03,9.561484336853027344e+00,3.824593424797058105e-01,-2.677215635776519775e-01,2.040000000000000000e+02
1.745145494975472957e+03,1.740349308772428685e+03,2.132874915047836112e+03,2.297093952258884656e+03,1.589274514625389656e+03,1.630585879769218991e+03,3.222404991276472174e+03,1.921570804493994501e+03,9.561484336853027344e+00,3.824593424797058105e-01,-2.677215635776519775e-01,2.050000000000000000e+02
1.773205933076613292e+03,1.777289405699224062e+03,2.162033277023554092e+03,2.207063635118344337e+03,1.605475352660823319e+03,1.664530388550069802e+03,3.054343633727024098e+03,1.978905564225011403e+03,9.561484336853027344e+00,3.824593424797058105e-01,-2.677215635776519775e-01,2.060000000000000000e+02
1.765444990504973248e+03,1.769012658972575537e+03,2.152111482402568072e+03,2.179484409813320326e+03,1.602028545926815696e+03,1.658207119378246716e+03,2.985114512319577443e+03,1.957098456625534482e+03,9.561484336853027344e+00,3.824593424797058105e-01,-2.677215635776519775e-01,2.070000000000000000e+02
1.702821750456352220e+03,1.697935127812325163e+03,2.077665787966314383e+03,2.208365023595451930e+03,1.554869007795900870e+03,1.589121650417172987e+03,3.042417922015177737e+03,1.850027195550532952e+03,9.408499717712402344e+00,3.059675097465515137e-01,-3.824593424797058105e-01,2.080000000000000000e+02
1.642307558052581498e+03,1.633116258310752073e+03,2.002466925570419335e+03,2.209042083540264684e+03,1.501036150975793589e+03,1.521232206985300763e+03,3.080011908298441540e+03,1.769931676033199892e+03,9.408499717712402344e+00,3.059675097465515137e-01,-3.824593424797058105e-01,2.090000000000000000e+02
1.637172592428901680e+03,1.634634400939636862e+03,1.991780966341697876e+03,2.135515128157131130e+03,1.488210358150930006e+03,1.517615448308762097e+03,2.979301637196134834e+03,1.792962406975103931e+03,9.408499717712402344e+00,3.059675097465515137e-01,-3.824593424797058105e-01,2.100000000000000000e+02
1.663287875352374158e+03,1.670709143608811701e+03,2.022000231799617723e+03,2.045106110059988168e+03,1.508147421321290039e+03,1.554307046589478432e+03,2.813003269168282259e+03,1.853442442924581428e+03,9.408499717712402344e+00,3.059675097465515137e-01,-3.824593424797058105e-01,2.110000000000000000e+02
1.653544886238641084e+03,1.661515332672421437e+03,2.012325823028311333e+03,2.019462743061277251e+03,1.506780058183652727e+03,1.552851642451271346e+03,2.744210515319935439e+03,1.833808008134545162e+03,9.408499717712402344e+00,3.059675097465515137e-01,-3.824593424797058105e-01,2.120000000000000000e+02
1.591077775366970855e+03,1.590059644311079182e+03,1.936541514102787005e+03,2.051208380206235233e+03,1.459244774344874941e+03,1.487708573838119719e+03,2.800731383287113658e+03,1.727289141481923707e+03,9.408499717712402344e+00,3.059675097465515137e-01,-3.824593424797058105e-01,2.130000000000000000e+02
1.531705846969595768e+03,1.527044612930843641e+03,1.860543427148163119e+03,2.054133996243781439e+03,1.405158711518658038e+03,1.421386129707116652e+03,2.837705999823944239e+03,1.647467741505756294e+03,9.408499717712402344e+00,3.059675097465515137e-01,-3.824593424797058105e-01,2.140000000000000000e+02
1.526519047278928610e+03,1.533454580743386941e+03,1.851971089520242003e+03,1.982516157004500201e+03,1.393317206152882136e+03,1.418028286629602917e+03,2.738990333827616723e+03,1.670594906616692015e+03,9.408499717712402344e+00,3.059675097465515137e-01,-3.824593424797058105e-01,2.150000000000000000e+02
1.552444988773075238e+03,1.574507531679386602e+03,1.886351301898029760e+03,1.893843866035737847e+03,1.413406247611779008e+03,1.454393295327843816e+03,2.577117927953250273e+03,1.729955313570293356e+03,9.408499717712402344e+00,3.059675097465515137e-01,-3.824593424797058105e-01,2.160000000000000000e+02
1.544568826953857297e+03,1.566030260285444228e+03,1.880442396954775177e+03,1.868857704514216948e+03,1.410928808411414138e+03,1.452264043387911670e+03,2.511930081647297357e+03,1.709164850411770431e+03,9.408499717712402344e+00,3.059675097465515137e-01,-3.824593424797058105e-01,2.170000000000000000e+02
1.484584446499544811e+03,1.491249044197541480e+03,1.806977286649388361e+03,1.900307100025658656e+03,1.363357440686566406e+03,1.387600310673062040e+03,2.569934884383246299e+03,1.603904237090175229e+03,9.408499717712402344e+00,3.059675097465515137e-01,-3.824593424797058105e-01,2.180000000000000000e+02
1.425287488562054023e+03,1.425006846179965123e+03,1.731541459088731926e+03,1.903935363645897723e+03,1.310497975074794340e+03,1.323932939597891163e+03,2.608587629603082860e+03,1.527304606325201348e+03,9.408499717712402344e+00,3.059675097465515137e-01,-3.824593424797058105e-01,2.190000000000000000e+02
1.418562870654489871e+03,1.429939211865053721e+03,1.721169185256938817e+03,1.835513305940013197e+03,1.298595627009312011e+03,1.323720444453410892e+03,2.513057150154198553e+03,1.553022619314873054e+03,9.408499717712402344e+00,3.059675097465515137e-01,-3.824593424797058105e-01,2.200000000000000000e+02
1.444513104004347952e+03,1.469237590648841888e+03,1.752216882236662059e+03,1.751746264526067989e+03,1.317100127835359444e+03,1.361840201421913662e+03,2.354485121266954593e+03,1.613893848106526320e+03,9.408499717712402344e+00,3.059675097465515137e-01,-3.824593424797058105e-01,2.210000000000000000e+02
1.438461328975387232e+03,1.458260133588137023e+03,1.744392903276525885e+03,1.731208676824843906e+03,1.314025137005077795e+03,1.361032107650180706e+03,2.292337688977275775e+03,1.594871834270849831e+03,9.408499717712402344e+00,3.059675097465515137e-01,-3.824593424797058105e-01,2.220000000000000000e+02
1.380343481000500788e+03,1.382769827853040169e+03,1.672554933422373097e+03,1.765027935773020772e+03,1.267321218301360886e+03,1.298805917988571082e+03,2.354210430978476779e+03,1.491231276265682936e+03,9.408499717712402344e+00,3.059675097465515137e-01,-3.824593424797058105e-01,2.230000000000000000e+02
1.323648101781441483e+03,1.318796419617135825e+03,1.601414174625664373e+03,1.768840640723989281e+03,1.214981363390600791e+03,1.237468535814057077e+03,2.396710510762150079e+03,1.414655218441952911e+03,9.408499717712402344e+00,3.059675097465515137e-01,-3.824593424797058105e-01,2.240000000000000000e+02
1.321818550424470914e+03,1.327274605487119061e+03,1.595860133058057045e+03,1.699398725751161464e+03,1.203214101559454321e+03,1.237045832156831239e+03,2.303404167194160891e+03,1.439368391610614708e+03,9.408499717712402344e+00,3.059675097465515137e-01,-3.824593424797058105e-01,2.250000000000000000e+02
1.352957993757102258e+03,1.370050475267224783e+03,1.630990831101933736e+03,1.614428896514003327e+03,1.222765086028533233e+03,1.272255418236666628e+03,2.146779162022455694e+03,1.499742668687157902e+03,9.408499717712402344e+00,3.059675097465515137e-01,-3.824593424797058105e-01,2.260000000000000000e+02
1.348751374914158987e+03,1.362639214796264923e+03,1.625927943300275501e+03,1.593220687402070325e+03,1.220978133379704786e+03,1.267761835909667525e+03,2.088360225180493217e+03,1.480694183233540798e+03,9.408499717712402344e+00,3.059675097465515137e-01,-3.824593424797058105e-01,2.270000000000000000e+02
1.288954169670480496e+03,1.290193362499141585e+03,1.555413351079423819e+03,1.627697105503099920e+03,1.175037698217232446e+03,1.202525996516672421e+03,2.154567355343688632e+03,1.377247321865804224e+03,9.408499717712402344e+00,3.059675097465515137e-01,-3.824593424797058105e-01,2.280000000000000000e+02
1.229786923325585576e+03,1.226931489226071790e+03,1.485244929404176219e+03,1.633933627087896184e+03,1.125219153451081183e+03,1.139103643253344217e+03,2.200193605766775818e+03,1.302419819109407172e+03,9.408499717712402344e+00,3.059675097465515137e-01,-3.824593424797058105e-01,2.290000000000000000e+02
1.226076216964365813e+03,1.232949253732614125e+03,1.481517589456313090e+03,1.567786694561529657e+03,1.119408376846718056e+03,1.137655534513303792e+03,2.109805699072173411e+03,1.331218616725099537e+03,9.408499717712402344e+00,3.059675097465515137e-01,-3.824593424797058105e-01,2.300000000000000000e+02
1.255280765862119551e+03,1.271521381860454767e+03,1.518620801841297180e+03,1.485469707856587775e+03,1.145248840612332060e+03,1.173333075602900863e+03,1.956900210653175691e+03,1.396534263717145222e+03,9.408499717712402344e+00,3.059675097465515137e-01,-3.824593424797058105e-01,2.310000000000000000e+02
1.249180963525852803e+03,1.261396325741859073e+03,1.514410063224989244e+03,1.466013925882679359e+03,1.146549236986857068e+03,1.170667617240484105e+03,1.901687552915100241e+03,1.381724271288466753e+03,9.408499717712402344e+00,3.059675097465515137e-01,-3.824593424797058105e-01,2.320000000000000000e+02
1.189684306163946530e+03,1.190792005289102235e+03,1.444689519865311468e+03,1.502370918483005880e+03,1.101544651371383225e+03,1.107491648983054347e+03,1.970298588159380415e+03,1.281446052841145047e+03,9.408499717712402344e+00,3.059675097465515137e-01,-3.824593424797058105e-01,2.330000000000000000e+02
1.135135687639669413e+03,1.133686143177958911e+03,1.377071685092562348e+03,1.511299627472041720e+03,1.052167366550254883e+03,1.045507964372414335e+03,2.019462871478031047e+03,1.207879206286022509e+03,9.408499717712402344e+00,3.059675097465515137e-01,-3.824593424797058105e-01,2.340000000000000000e+02
1.138963702816459772e+03,1.146391599690705789e+03,1.376467725861155941e+03,1.448508193391823625e+03,1.044435117169420209e+03,1.045606292780575586e+03,1.933767141853732028e+03,1.235342078643877358e+03,9.484992027282714844e+00,2.294756323099136353e-01,-3.442134261131286621e-01,2.350000000000000000e+02
1.173573946372815044e+03,1.189428389865487588e+03,1.414650740149154444e+03,1.369856603967486990e+03,1.065461492632476620e+03,1.084007546307077064e+03,1.784162296488499123e+03,1.298861187474371036e+03,9.484992027282714844e+00,2.294756323099136353e-01,-3.442134261131286621e-01,2.360000000000000000e+02
1.167461906276722402e+03,1.182252626413052894e+03,1.409945672332432878e+03,1.353696856164411201e+03,1.063307246437179856e+03,1.084355416609540498e+03,1.730342648263747833e+03,1.284821228912701827e+03,9.484992027282714844e+00,2.294756323099136353e-01,-3.442134261131286621e-01,2.370000000000000000e+02
1.105193891767230525e+03,1.113260239246698802e+03,1.340684484083119514e+03,1.391856082660162429e+03,1.018954943180274768e+03,1.022316737104068579e+03,1.800679999835946546e+03,1.187164053602818058e+03,9.484992027282714844e+00,2.294756323099136353e-01,-3.442134261131286621e-01,2.380000000000000000e+02
1.049700036848638774e+03,1.054187074893010504e+03,1.274539523899209144e+03,1.400730225181523110e+03,9.715070003338823881e+02,9.591779788980511512e+02,1.852754195780393275e+03,1.114694278419371585e+03,9.484992027282714844e+00,2.294756323099136353e-01,-3.442134261131286621e-01,2.390000000000000000e+02
1.055209374377829590e+03,1.061931703488853600e+03,1.274646785491025184e+03,1.337093854979639218e+03,9.643445216302125118e+02,9.576738891937320659e+02,1.769699228947960364e+03,1.140513686204695659e+03,9.484992027282714844e+00,2.294756323099136353e-01,-3.442134261131286621e-01,2.400000000000000000e+02
1.093028697083004772e+03,1.102368544806794489e+03,1.313124520886614846e+03,1.258048147624401281e+03,9.857281093454698748e+02,9.957712063071289776e+02,1.621572923761845232e+03,1.200766946912376625e+03,9.484992027282714844e+00,2.294756323099136353e-01,-3.442134261131286621e-01,2.410000000000000000e+02
1.092284571219382997e+03,1.097807007307166714e+03,1.309860622801743830e+03,1.242336247626566546e+03,9.841013131590680132e+02,9.976810596632294619e+02,1.568261398881180867e+03,1.182641624770062208e+03,9.484992027282714844e+00,2.294756323099136353e-01,-3.442134261131286621e-01,2.420000000000000000e+02
1.036769988131281934e+03,1.033135053555609375e+03,1.242245724788348525e+03,1.282044789800870603e+03,9.385976693382572194e+02,9.392578665544933756e+02,1.638120288174671259e+03,1.081333675590557050e+03,9.484992027282714844e+00,2.294756323099136353e-01,-3.442134261131286621e-01,2.430000000000000000e+02
9.846201136514773680e+02,9.768514644606084403e+02,1.175696956017955017e+03,1.294063158177067635e+03,8.887831097032822072e+02,8.813326852810096170e+02,1.689309025639336141e+03,1.008251856493388914e+03,9.484992027282714844e+00,2.294756323099136353e-01,-3.442134261131286621e-01,2.440000000000000000e+02
9.869472360266536271e+02,9.869579509201275869e+02,1.173854567071530255e+03,1.234791789142229391e+03,8.809461717467265771e+02,8.849851874254218274e+02,1.606991006107871726e+03,1.037527657998040013e+03,9.484992027282714844e+00,2.294756323099136353e-01,-3.442134261131286621e-01,2.450000000000000000e+02
1.018119627141860292e+03,1.029148597664203407e+03,1.211411883772662804e+03,1.159719338860604694e+03,9.042304804064569907e+02,9.269190990317010801e+02,1.462593536492689964e+03,1.103517588332639207e+03,9.484992027282714844e+00,2.294756323099136353e-01,-3.442134261131286621e-01,2.460000000000000000e+02
1.011472497895307242e+03,1.022162451473468536e+03,1.208830291181029679e+03,1.146265880927074249e+03,9.060677105882878095e+02,9.320240716475091176e+02,1.414656747278952025e+03,1.091956135696247657e+03,9.484992027282714844e+00,2.294756323099136353e-01,-3.442134261131286621e-01,2.470000000000000000e+02
9.510958828830080165e+02,9.509323535838675525e+02,1.141847731062381172e+03,1.186746561840227514e+03,8.654607731174364744e+02,8.772536773593556063e+02,1.488854059284265531e+03,9.977433716140421893e+02,9.484992027282714844e+00,2.294756323099136353e-01,-3.442134261131286621e-01,2.480000000000000000e+02
8.946747967799537946e+02,8.894763904150931921e+02,1.075580243161229191e+03,1.199205696623462245e+03,8.214577161375009382e+02,8.227426908686393290e+02,1.542136474913608254e+03,9.304461168112184168e+02,9.484992027282714844e+00,2.294756323099136353e-01,-3.442134261131286621e-01,2.490000000000000000e+02
8.956352821401487745e+02,8.986553904727225017e+02,1.075586150323191760e+03,1.140825227388684652e+03,8.181578960055321659e+02,8.275963324710164670e+02,1.460673873098394324e+03,9.616137498824491558e+02,9.484992027282714844e+00,2.294756323099136353e-01,-3.442134261131286621e-01,2.500000000000000000e+02
9.305099895558305434e+02,9.411773658268393774e+02,1.117525998509616329e+03,1.066996618440046404e+03,8.435457091592470533e+02,8.674602415343670145e+02,1.317440045132489104e+03,1.025953753860805591e+03,9.484992027282714844e+00,2.294756323099136353e-01,-3.442134261131286621e-01,2.510000000000000000e+02
9.310886377188153347e+02,9.337894260973143901e+02,1.120200909051104645e+03,1.054467788033875877e+03,8.460007957203551996e+02,8.683763379380498009e+02,1.271332160062816911e+03,1.011850271821045681e+03,9.484992027282714844e+00,2.294756323099136353e-01,-3.442134261131286621e-01,2.520000000000000000e+02
8.772757042310449833e+02,8.635946785828027714e+02,1.057355466180993062e+03,1.094935532148630955e+03,8.052138701199301067e+02,8.100151274852087226e+02,1.347550005634568151e+03,9.158284087201482180e+02,9.484992027282714844e+00,2.294756323099136353e-01,-3.442134261131286621e-01,2.530000000000000000e+02
8.233149904103629524e+02,8.059189646289978555e+02,9.937810024232039723e+02,1.106403489623593487e+03,7.604623155099579890e+02,7.541847724756453317e+02,1.403377413151149085e+03,8.480563800145428104e+02,9.484992027282714844e+00,2.294756323099136353e-01,-3.442134261131286621e-01,2.540000000000000000e+02
8.226838105468741560e+02,8.201304927586133999e+02,9.952972511002271858e+02,1.046586691136708396e+03,7.571096532441324598e+02,7.586449438896852371e+02,1.326067161912233132e+03,8.808111178549879696e+02,9.484992027282714844e+00,2.294756323099136353e-01,-3.442134261131286621e-01,2.550000000000000000e+02
8.555480449975439114e+02,8.682871084035732565e+02,1.037538094802476735e+03,9.714690519595678779e+02,7.839728752128830820e+02,7.967018383029153483e+02,1.188411227324777428e+03,9.484262230434796948e+02,9.484992027282714844e+00,2.294756323099136353e-01,-3.442134261131286621e-01,2.560000000000000000e+02
8.572188785300004383e+02,8.672238895059836068e+02,1.040257779650730299e+03,9.580782025602866270e+02,7.882637289241165490e+02,7.944808653234304074e+02,1.147329748136186026e+03,9.376125362101929568e+02,9.484992027282714844e+00,2.294756323099136353e-01,-3.442134261131286621e-01,2.570000000000000000e+02
8.078023694794901530e+02,8.014742461956602710e+02,9.790367230652627768e+02,9.983330535154800600e+02,7.485402204524580156e+02,7.332616690687646042e+02,1.226450701403449784e+03,8.440094569627608507e+02,9.484992027282714844e+00,2.294756323099136353e-01,-3.442134261131286621e-01,2.580000000000000000e+02
7.600029435142469083e+02,7.432902732863694837e+02,9.187357565358915963e+02,1.010868398007578435e+03,7.043900643485831097e+02,6.751602086320199305e+02,1.283470315895207023e+03,7.778602181071646555e+02,9.484992027282714844e+00,2.294756323099136353e-01,-3.442134261131286621e-01,2.590000000000000000e+02
7.658805239334578800e+02,7.535109522888715219e+02,9.229773328381015745e+02,9.539771244241092063e+02,7.013194826157596253e+02,6.782004913292703350e+02,1.206845507101641488e+03,8.110991722074550125e+02,9.484992027282714844e+00,2.294756323099136353e-01,-3.442134261131286621e-01,2.600000000000000000e+02
8.026746367496689345e+02,7.985639799867121837e+02,9.659431344911054111e+02,8.828783008529608196e+02,7.278016644176632326e+02,7.177815249902678261e+02,1.069811600108820130e+03,8.782049991381181826e+02,9.484992027282714844e+00,2.294756323099136353e-01,-3.442134261131286621e-01,2.610000000000000000e+02
8.024600757801399595e+02,7.968503469179795502e+02,9.681495114121225924e+02,8.726266785568986961e+02,7.317010970442042890e+02,7.207075084028710990e+02,1.029327901216778628e+03,8.675244972677946862e+02,9.484992027282714844e+00,2.294756323099136353e-01,-3.442134261131286621e-01,2.620000000000000000e+02
7.472696649271310889e+02,7.314581116172321344e+02,9.062086941634343020e+02,9.143596195880181767e+02,6.925193177614819433e+02,6.652696323661384668e+02,1.109506116837830632e+03,7.758287176850544711e+02,9.484992027282714844e+00,2.294756323099136353e-01,-3.442134261131286621e-01,2.630000000000000000e+02
6.959722624194437230e+02,6.742019656238235257e+02,8.451384489060401393e+02,9.283435960288370552e+02,6.494945291187050316e+02,6.116506556334206834e+02,1.168623097606323427e+03,7.125060897124885742e+02,9.484992027282714844e+00,2.294756323099136353e-01,-3.442134261131286621e-01,2.640000000000000000e+02
7.026254042419241159e+02,6.869855581922456622e+02,8.488223501990596560e+02,8.744855159958078730e+02,6.473642439152408770e+02,6.199224416895140166e+02,1.095069604091419023e+03,7.480926026639917836e+02,9.484992027282714844e+00,2.294756323099136353e-01,-3.442134261131286621e-01,2.650000000000000000e+02
7.408258953415243013e+02,7.360957891175075929e+02,8.919508290544436022e+02,8.072594595741938974e+02,6.746003689802419103e+02,6.662061635774825845e+02,9.613385657704438927e+02,8.162443469892987196e+02,9.446745872497558594e+00,2.294756323099136353e-01,-3.059675097465515137e-01,2.660000000000000000e+02
7.409152708235578757e+02,7.381446456154699263e+02,8.948859661712049274e+02,8.001672737559019879e+02,6.790381908863037097e+02,6.739079578675100493e+02,9.233059771576117782e+02,8.049911775963319087e+02,9.446745872497558594e+00,2.294756323099136353e-01,-3.059675097465515137e-01,2.670000000000000000e+02
6.869151624298992829e+02,6.747353113039844175e+02,8.335972797824852023e+02,8.442069072774465894e+02,6.396159247454816068e+02,6.198394319902654388e+02,1.004240772570938134e+03,7.119638701008043427e+02,9.446745872497558594e+00,2.294756323099136353e-01,-3.059675097465515137e-01,2.680000000000000000e+02
6.374590587359543861e+02,6.174451111690523248e+02,7.725962920809834031e+02,8.598606651815334772e+02,5.952556904714674602e+02,5.672480411702326819e+02,1.062714715002404773e+03,6.480486514559361240e+02,9.446745872497558594e+00,2.294756323099136353e-01,-3.059675097465515137e-01,2.690000000000000000e+02
6.439459888306428184e+02,6.286398061761192366e+02,7.754186735119583318e+02,8.062973923436675250e+02,5.910416814719865215e+02,5.775618630459666747e+02,9.885288403377471695e+02,6.835331808212686155e+02,9.446745872497558594e+00,2.294756323099136353e-01,-3.059675097465515137e-01,2.700000000000000000e+02
6.805637326959877100e+02,6.754115945154171641e+02,8.171702731937166391e+02,7.380226456256441452e+02,6.164876436788872525e+02,6.244101326037598483e+02,8.551156249970263161e+02,7.507896133211088454e+02,9.446745872497558594e+00,2.294756323099136353e-01,-3.059675097465515137e-01,2.710000000000000000e+02
6.807762805748170649e+02,6.757820004150198656e+02,8.199456994798092637e+02,7.304323520254365576e+02,6.209959695858815394e+02,6.308136518366736709e+02,8.179755677824614395e+02,7.389613318621595681e+02,9.446745872497558594e+00,2.294756323099136353e-01,-3.059675097465515137e-01,2.720000000000000000e+02
6.288718876558086777e+02,6.132006810954717366e+02,7.610195812851252413e+02,7.756379158086183452e+02,5.840997126842066791e+02,5.759881546523884026e+02,9.000847941838910629e+02,6.478738474431065697e+02,9.446745872497558594e+00,2.294756323099136353e-01,-3.059675097465515137e-01,2.730000000000000000e+02
5.815918620468055451e+02,5.599301930372475908e+02,7.038853719897415431e+02,7.925828582470257970e+02,5.432956071352255094e+02,5.224509252505413315e+02,9.606773250837795786e+02,5.872033255203896260e+02,9.446745872497558594e+00,2.294756323099136353e-01,-3.059675097465515137e-01,2.740000000000000000e+02
5.903206582987622824e+02,5.762475696812471142e+02,7.103604279658266023e+02,7.388365345663187327e+02,5.419150622053730331e+02,5.289859749596071197e+02,8.896643397250300040e+02,6.242790599236777780e+02,9.446745872497558594e+00,2.294756323099136353e-01,-3.059675097465515137e-01,2.750000000000000000e+02
6.303837085059712990e+02,6.259809650994102412e+02,7.555813915995167918e+02,6.698337944129634707e+02,5.689042454476857529e+02,5.713858335540116968e+02,7.593378913109809218e+02,6.917777109380367619e+02,9.446745872497558594e+00,2.294756323099136353e-01,-3.059675097465515137e-01,2.760000000000000000e+02
6.353677389537351701e+02,6.266979844951474661e+02,7.622007251570685185e+02,6.625432243536615715e+02,5.731170139883433876e+02,5.770150721788522787e+02,7.246649307613915880e+02,6.805326998659274977e+02,9.446745872497558594e+00,2.294756323099136353e-01,-3.059675097465515137e-01,2.770000000000000000e+02
5.891624566947411950e+02,5.645921621288234746e+02,7.063799150280883623e+02,7.086102250839358021e+02,5.334088431812124327e+02,5.237501666739644861e+02,8.093923803241705173e+02,5.889482505256710283e+02,9.446745872497558594e+00,2.294756323099136353e-01,-3.059675097465515137e-01,2.780000000000000000e+02
5.471025434029652388e+02,5.135008491180251440e+02,6.502541481767839286e+02,7.257276713952051068e+02,4.886190717763074645e+02,4.697754052719283209e+02,8.729713318781759881e+02,5.253474855479544203e+02,9.446745872497558594e+00,2.294756323099136353e-01,-3.059675097465515137e-01,2.790000000000000000e+02
5.576252623565251270e+02,5.322063326221978059e+02,6.564311891088073025e+02,6.720387588927569595e+02,4.847838730906223645e+02,4.744274842336344591e+02,8.046441813984820328e+02,5.602522887015675224e+02,9.446745872497558594e+00,2.294756323099136353e-01,-3.059675097465515137e-01,2.800000000000000000e+02
5.955279039986780845e+02,5.835832894911491167e+02,7.017834787689535005e+02,6.045214393596215814e+02,5.112812131600130670e+02,5.163267550418513565e+02,6.768957912745499925e+02,6.294170875826494012e+02,9.446745872497558594e+00,2.294756323099136353e-01,-3.059675097465515137e-01,2.810000000000000000e+02
5.983033369492623024e+02,5.867226521311404213e+02,7.091306730007636361e+02,5.999098575177049497e+02,5.152203083424083161e+02,5.214087238421561779e+02,6.452899641294025059e+02,6.212322021838408546e+02,9.446745872497558594e+00,2.294756323099136353e-01,-3.059675097465515137e-01,2.820000000000000000e+02
5.519938001289592648e+02,5.281135797387869388e+02,6.536070481923725310e+02,6.482093089636327932e+02,4.753456976426532492e+02,4.658289727803603455e+02,7.327664432674428099e+02,5.309566411480045645e+02,9.446745872497558594e+00,2.294756323099136353e-01,-3.059675097465515137e-01,2.830000000000000000e+02
5.088213404438101861e+02,4.786228525776241440e+02,5.970324140952452581e+02,6.670189909286746115e+02,4.322371802127272531e+02,4.114499965117920510e+02,7.979430023069980962e+02,4.687158165544406074e+02,9.446745872497558594e+00,2.294756323099136353e-01,-3.059675097465515137e-01,2.840000000000000000e+02
5.158962655411578453e+02,4.950758203261284507e+02,6.026939626213843439e+02,6.159919432054139179e+02,4.322004471253658267e+02,4.205462634621617326e+02,7.313102385614765808e+02,5.073387659461222938e+02,9.446745872497558594e+00,2.294756323099136353e-01,-3.059675097465515137e-01,2.850000000000000000e+02
5.519593015479749738e+02,5.427071419673557102e+02,6.482610060886763677e+02,5.519754290897672035e+02,4.632688802002739976e+02,4.674962312603092869e+02,6.065975151829297829e+02,5.805101036876749276e+02,9.446745872497558594e+00,2.294756323099136353e-01,-3.059675097465515137e-01,2.860000000000000000e+02
5.554284908032204839e+02,5.438799482148569950e+02,6.569515248021070875e+02,5.495464251181547297e+02,4.721223710519116139e+02,4.739720081030827714e+02,5.781661170666047838e+02,5.746329444932471233e+02,9.523238182067871094e+00,2.294756323099136353e-01,-3.442134261131286621e-01,2.870000000000000000e+02
5.071886438889105193e+02,4.852452282094909606e+02,6.036133258367190138e+02,5.982433939768889104e+02,4.374771161512471735e+02,4.192411088134940655e+02,6.675719201722749858e+02,4.867836857839047298e+02,9.523238182067871094e+00,2.294756323099136353e-01,-3.442134261131286621e-01,2.880000000000000000e+02
4.583764726983135915e+02,4.359720199674102332e+02,5.490369691853611585e+02,6.178389421098800085e+02,3.982785210331658163e+02,3.689624355973573984e+02,7.341556645647324331e+02,4.278137841287807532e+02,9.523238182067871094e+00,2.294756323099136353e-01,-3.442134261131286621e-01,2.890000000000000000e+02
4.626050881711416878e+02,4.520870712804644427e+02,5.554074486850768153e+02,5.689363340860036260e+02,3.990400649034891103e+02,3.828302880084847857e+02,6.689350176145526348e+02,4.676318483975173876e+02,9.523238182067871094e+00,2.294756323099136353e-01,-3.442134261131286621e-01,2.900000000000000000e+02
5.015808037980459630e+02,4.989603240653686953e+02,6.000403301436654147e+02,5.067626836500603531e+02,4.283028787432867830e+02,4.324417089084781765e+02,5.443631279387846007e+02,5.391407101178574521e+02,9.523238182067871094e+00,2.294756323099136353e-01,-3.442134261131286621e-01,2.910000000000000000e+02
5.088201111651760584e+02,4.993663601595053478e+02,6.068648168936488219e+02,5.052319267646744265e+02,4.344676139620205504e+02,4.420900878409192956e+02,5.143705495458561927e+02,5.322069654751849157e+02,9.523238182067871094e+00,2.294756323099136353e-01,-3.442134261131286621e-01,2.920000000000000000e+02
4.627016611391118204e+02,4.408591708150270279e+02,5.522913595677946432e+02,5.552456543319422053e+02,3.971564081489887030e+02,3.925088407119001204e+02,6.022330633080346161e+02,4.453959903677896364e+02,9.523238182067871094e+00,2.294756323099136353e-01,-3.442134261131286621e-01,2.930000000000000000e+02
4.176590154474615701e+02,3.933795078394578013e+02,4.983638387729661190e+02,5.766939521498643444e+02,3.559353953554382315e+02,3.453744201932750002e+02,6.686180526307653054e+02,3.869700052789467009e+02,9.523238182067871094e+00,2.294756323099136353e-01,-3.442134261131286621e-01,2.940000000000000000e+02
4.268267236835818039e+02,4.126193205425734050e+02,5.065960508715288597e+02,5.287155336359064677e+02,3.561221472661127336e+02,3.583842810576534248e+02,6.043663730995249352e+02,4.257878236628039303e+02,9.523238182067871094e+00,2.294756323099136353e-01,-3.442134261131286621e-01,2.950000000000000000e+02
4.664123799603657972e+02,4.629502578103856649e+02,5.523146073667339806e+02,4.667450788953065057e+02,3.859819116547514568e+02,4.069673568260441243e+02,4.817584612314421975e+02,4.968316151195685961e+02,9.523238182067871094e+00,2.294756323099136353e-01,-3.442134261131286621e-01,2.960000000000000000e+02
4.701311082726242603e+02,4.660484175029159815e+02,5.590615546575681947e+02,4.662558366081866552e+02,3.929184365485270973e+02,4.176986110811922117e+02,4.545110007021721685e+02,4.906047894609891955e+02,9.523238182067871094e+00,2.294756323099136353e-01,-3.442134261131286621e-01,2.970000000000000000e+02
4.229396926020490355e+02,4.080033609704842092e+02,5.051054787321809272e+02,5.178016110298704007e+02,3.567780884313469869e+02,3.687641572478569287e+02,5.447364555516251130e+02,4.043412967711738020e+02,9.523238182067871094e+00,2.294756323099136353e-01,-3.442134261131286621e-01,2.980000000000000000e+02
3.808215591559819586e+02,3.580442362184767262e+02,4.535572899990875158e+02,5.396473046494793380e+02,3.178600662260068930e+02,3.207695095924864290e+02,6.125072674617294979e+02,3.465058434388811293e+02,9.523238182067871094e+00,2.294756323099136353e-01,-3.442134261131286621e-01,2.990000000000000000e+02
3.921511982192823780e+02,3.736678552993071207e+02,4.647324461608077399e+02,4.907826256943262706e+02,3.205784349449313595e+02,3.332616571695507446e+02,5.498436149837543780e+02,3.868934915149002336e+02,9.523238182067871094e+00,2.294756323099136353e-01,-3.442134261131286621e-01,3.000000000000000000e+02
4.323186626786555280e+02,4.221453904600093665e+02,5.129272495231125504e+02,4.271663821073707368e+02,3.519383892478908820e+02,3.808720857003427227e+02,4.299182502893199853e+02,4.595537423754685733e+02,9.523238182067871094e+00,2.294756323099136353e-01,-3.442134261131286621e-01,3.010000000000000000e+02
4.389846355898735055e+02,4.259616782210432575e+02,5.222893409783500829e+02,4.238947451020940207e+02,3.601358887075548409e+02,3.876996988041537406e+02,4.055451448864041595e+02,4.542067599995607452e+02,9.523238182067871094e+00,2.294756323099136353e-01,-3.442134261131286621e-01,3.020000000000000000e+02
3.967774129075478413e+02,3.700954530922099366e+02,4.715647254752111621e+02,4.718649208394235757e+02,3.263618250022955181e+02,3.336589916982557043e+02,4.979531802099154447e+02,3.692525405460000911e+02,9.523238182067871094e+00,2.294756323099136353e-01,-3.442134261131286621e-01,3.030000000000000000e+02
3.571219709102260822e+02,3.229921413640367973e+02,4.231807224058866268e+02,4.912636970204766840e+02,2.903920349090913078e+02,2.829625005769703421e+02,5.676160494903488143e+02,3.133054905054887058e+02,9.523238182067871094e+00,2.294756323099136353e-01,-3.442134261131286621e-01,3.040000000000000000e+02
3.678297917335512466e+02,3.414752728160601691e+02,4.368003972403384978e+02,4.424009773092075193e+02,2.956170484367976314e+02,2.946851621234382037e+02,5.068890724478187622e+02,3.542778674036489974e+02,9.523238182067871094e+00,2.294756323099136353e-01,-3.442134261131286621e-01,3.050000000000000000e+02
4.073301765794349194e+02,3.913888354833179619e+02,4.864387916556624987e+02,3.811634658993280027e+02,3.291860833477694541e+02,3.415193381877579668e+02,3.884519343149149790e+02,4.259290577989668236e+02,9.523238182067871094e+00,2.294756323099136353e-01,-3.442134261131286621e-01,3.060000000000000000e+02
4.131306159875421145e+02,3.948411151349100692e+02,4.954983864605055714e+02,3.823613305505205062e+02,3.391271265773466439e+02,3.488156206237581500e+02,3.646693851743257255e+02,4.198089972780580865e+02,9.523238182067871094e+00,2.294756323099136353e-01,-3.442134261131286621e-01,3.070000000000000000e+02
3.678308496364843450e+02,3.384811552198661957e+02,4.421164134262653533e+02,4.358272294642702036e+02,3.056174103476914752e+02,2.974912706296854594e+02,4.567545524709166784e+02,3.347413226817261602e+02,9.523238182067871094e+00,2.294756323099136353e-01,-3.442134261131286621e-01,3.080000000000000000e+02
3.248700606542115565e+02,2.919322852826990129e+02,3.897053995594396838e+02,4.594964965160397696e+02,2.687034364579340036e+02,2.491808190666997689e+02,5.256791380057693459e+02,2.784957580387999769e+02,9.523238182067871094e+00,2.294756323099136353e-01,-3.442134261131286621e-01,3.090000000000000000e+02
3.360461910958401859e+02,3.113788276777522697e+02,4.001665640554783749e+02,4.128266620829272142e+02,2.732334102424938465e+02,2.612688405851404241e+02,4.651733067001841846e+02,3.197544449772576627e+02,9.523238182067871094e+00,2.294756323099136353e-01,-3.442134261131286621e-01,3.100000000000000000e+02
3.795965922918403521e+02,3.624568355005940248e+02,4.489516504519342561e+02,3.532908327389741316e+02,3.066118551069812384e+02,3.084402024696973967e+02,3.490360760278563248e+02,3.934244789283875434e+02,9.523238182067871094e+00,2.294756323099136353e-01,-3.442134261131286621e-01,3.110000000000000000e+02
3.893798527241087868e+02,3.681255721942361561e+02,4.588096860422083410e+02,3.566029360869506490e+02,3.163767606136534596e+02,3.173849556946188386e+02,3.286311413130461005e+02,3.900124631467333529e+02,9.523238182067871094e+00,1.529837548732757568e-01,-2.294756323099136353e-01,3.120000000000000000e+02
3.458738137606851524e+02,3.145124968307427480e+02,4.061159520243672887e+02,4.114819738335863804e+02,2.831715339549373311e+02,2.677948414070524450e+02,4.230989532440653420e+02,3.068970927920272516e+02,9.523238182067871094e+00,1.529837548732757568e-01,-2.294756323099136353e-01,3.130000000000000000e+02
3.029582924641508725e+02,2.692240984402815229e+02,3.537746119401999749e+02,4.353399470862786984e+02,2.469692313801388082e+02,2.211064818245758943e+02,4.929940215431852266e+02,2.522078128579523764e+02,9.523238182067871094e+00,1.529837548732757568e-01,-2.294756323099136353e-01,3.140000000000000000e+02
3.132157059901728644e+02,2.874343067384361348e+02,3.649781630426405172e+02,3.884020205986416840e+02,2.510165664278756594e+02,2.360519684761602548e+02,4.329249842289864318e+02,2.952514535866757797e+02,9.523238182067871094e+00,1.529837548732757568e-01,-2.294756323099136353e-01,3.150000000000000000e+02
3.549388750533435086e+02,3.350135400268445665e+02,4.158264034997446288e+02,3.282575348098216637e+02,2.825573469954324537e+02,2.873033129928153357e+02,3.167214749209742877e+02,3.708163798593959655e+02,9.523238182067871094e+00,1.529837548732757568e-01,-2.294756323099136353e-01,3.160000000000000000e+02
3.618840218988189008e+02,3.354024833662297169e+02,4.276464827704767231e+02,3.305413534651743248e+02,2.913165671974420547e+02,3.007501887016514956e+02,2.956554322714509908e+02,3.698340663423296064e+02,9.523238182067871094e+00,1.529837548732757568e-01,-2.294756323099136353e-01,3.170000000000000000e+02
3.153238068560858665e+02,2.767114295457213302e+02,3.757282610633410513e+02,3.850880508956834092e+02,2.586795040409160720e+02,2.561115903603276820e+02,3.902950277159106918e+02,2.899412327777135943e+02,9.523238182067871094e+00,1.529837548732757568e-01,-2.294756323099136353e-01,3.180000000000000000e+02
2.707784433406413882e+02,2.300312474424390530e+02,3.239112984238636272e+02,4.097582045213384845e+02,2.229628371000508196e+02,2.135563967402413255e+02,4.623283711817202857e+02,2.376130130904275575e+02,9.523238182067871094e+00,1.529837548732757568e-01,-2.294756323099136353e-01,3.190000000000000000e+02
2.811437848626919731e+02,2.517620554687964614e+02,3.359347585282848740e+02,3.633036234260653146e+02,2.272154655207414180e+02,2.287800275108420465e+02,4.049969389373218291e+02,2.804588986788039620e+02,9.523238182067871094e+00,1.529837548732757568e-01,-2.294756323099136353e-01,3.200000000000000000e+02
3.226866006562413531e+02,3.053343190176856297e+02,3.867182202790281735e+02,3.026114097744903120e+02,2.604827800775528885e+02,2.759601530424661178e+02,2.902228292501167743e+02,3.541176700892101508e+02,9.523238182067871094e+00,1.529837548732757568e-01,-2.294756323099136353e-01,3.210000000000000000e+02
3.280175409474722983e+02,3.115958194238228316e+02,3.977396347166941268e+02,3.043886139804817503e+02,2.725695532772951992e+02,2.842948302823206177e+02,2.695431732588040177e+02,3.515111593967558292e+02,9.523238182067871094e+00,1.529837548732757568e-01,-2.294756323099136353e-01,3.220000000000000000e+02
2.806076031676129787e+02,2.574299195388121007e+02,3.468936021592380712e+02,3.584181417730505927e+02,2.430414422027424735e+02,2.361309908150396950e+02,3.647841831320474739e+02,2.712313892129859596e+02,9.523238182067871094e+00,1.529837548732757568e-01,-2.294756323099136353e-01,3.230000000000000000e+02
2.382882067821155943e+02,2.121562138837034581e+02,2.989822727982536890e+02,3.814521990777575411e+02,2.096537253005990351e+02,1.914977406634316139e+02,4.378214192960003857e+02,2.200403359318224830e+02,9.523238182067871094e+00,1.529837548732757568e-01,-2.294756323099136353e-01,3.240000000000000000e+02
2.531240821342180425e+02,2.311921918551961426e+02,3.151520124756243604e+02,3.335612926374305971e+02,2.157458800085587427e+02,2.056523723812788376e+02,3.818128134109865641e+02,2.648790213257307187e+02,9.523238182067871094e+00,1.529837548732757568e-01,-2.294756323099136353e-01,3.250000000000000000e+02
2.998359406593335734e+02,2.807353036661988881e+02,3.682013929719287262e+02,2.741701917595200939e+02,2.491047478543914622e+02,2.526873484738207480e+02,2.691634081575975870e+02,3.386844773118100420e+02,9.523238182067871094e+00,1.529837548732757568e-01,-2.294756323099136353e-01,3.260000000000000000e+02
3.110747150887655152e+02,2.852258491589091136e+02,3.804172858877354884e+02,2.791628039586285013e+02,2.583456252699470497e+02,2.608651606419953168e+02,2.510112381212675245e+02,3.323185869888293382e+02,9.523238182067871094e+00,1.529837548732757568e-01,-2.294756323099136353e-01,3.270000000000000000e+02
2.692809952667412290e+02,2.315879522196592006e+02,3.303909424451740051e+02,3.356417654876568122e+02,2.247120795765404182e+02,2.121724311552316067e+02,3.476238647640348063e+02,2.466254970835070708e+02,9.523238182067871094e+00,1.529837548732757568e-01,-2.294756323099136353e-01,3.280000000000000000e+02
2.290636631611851044e+02,1.880785940346977441e+02,2.816307605489782873e+02,3.609305278517422266e+02,1.887823062222159933e+02,1.680138929228014604e+02,4.204697420571174007e+02,1.923185231944662519e+02,9.523238182067871094e+00,1.529837548732757568e-01,-2.294756323099136353e-01,3.290000000000000000e+02
2.412113791220981511e+02,2.110693199314773665e+02,2.948054301799784298e+02,3.172005036856862716e+02,1.945134507556758763e+02,1.841714115258364473e+02,3.640573391115249251e+02,2.366123960958393582e+02,9.523238182067871094e+00,1.529837548732757568e-01,-2.294756323099136353e-01,3.300000000000000000e+02
2.832959435820157523e+02,2.661730428360351652e+02,3.447592662560709869e+02,2.621215494908465189e+02,2.285314135739754420e+02,2.330302971797500504e+02,2.514847846820048289e+02,3.102552169517439324e+02,9.523238182067871094e+00,1.529837548732757568e-01,-2.294756323099136353e-01,3.310000000000000000e+02
2.915727041816717247e+02,2.739099101579486160e+02,3.558556215333082946e+02,2.678204475643651676e+02,2.389225182129121094e+02,2.415886292787909042e+02,2.329505796209195978e+02,3.044405185843061190e+02,9.523238182067871094e+00,1.529837548732757568e-01,-2.294756323099136353e-01,3.320000000000000000e+02
2.498212611088965787e+02,2.196812342149023607e+02,3.066842560639706790e+02,3.215253502845152980e+02,2.071849311265650613e+02,1.922090388071846974e+02,3.280888752583414316e+02,2.218123315449811344e+02,9.523238182067871094e+00,1.529837548732757568e-01,-2.294756323099136353e-01,3.330000000000000000e+02
2.118668815990240546e+02,1.747923813516281371e+02,2.596367957416769059e+02,3.438026297820470063e+02,1.734106388206237170e+02,1.464655860537313856e+02,3.991162422080597025e+02,1.715232176244353468e+02,9.523238182067871094e+00,1.529837548732757568e-01,-2.294756323099136353e-01,3.340000000000000000e+02
2.261949872599798255e+02,1.971838629099074751e+02,2.743479413458990166e+02,2.982542480051924940e+02,1.800551098632568028e+02,1.603529995026838151e+02,3.415521009005242377e+02,2.171823630011276691e+02,9.523238182067871094e+00,1.529837548732757568e-01,-2.294756323099136353e-01,3.350000000000000000e+02
2.680173064765913296e+02,2.507966730483531137e+02,3.248806558375290479e+02,2.421015767584030982e+02,2.127902471550260088e+02,2.081569334729138063e+02,2.292571588906866964e+02,2.895390465412638150e+02,9.523238182067871094e+00,1.529837548732757568e-01,-2.294756323099136353e-01,3.360000000000000000e+02
2.739274884531623684e+02,2.568311170793531346e+02,3.358465272869361797e+02,2.479359006123850122e+02,2.207348297182616079e+02,2.184424192627629964e+02,2.127544311944220681e+02,2.831233231675287243e+02,9.523238182067871094e+00,1.529837548732757568e-01,-2.294756323099136353e-01,3.370000000000000000e+02
2.302831082121119834e+02,2.037325990751123754e+02,2.875004837534725084e+02,3.035492563325533411e+02,1.874686923163972097e+02,1.721223320410208544e+02,3.111224387405018206e+02,2.016663237724424107e+02,9.523238182067871094e+00,1.529837548732757568e-01,-2.294756323099136353e-01,3.380000000000000000e+02
1.919286045163607923e+02,1.620008400899314438e+02,2.431934580196975730e+02,3.281791656044952106e+02,1.536010679232567782e+02,1.284812096861714963e+02,3.852701489805622259e+02,1.523348888894979609e+02,9.484992027282714844e+00,2.677215635776519775e-01,-2.677215635776519775e-01,3.390000000000000000e+02
2.063926565971414675e+02,1.857549061884346884e+02,2.608701273392434814e+02,2.834493985739100026e+02,1.601999237250347505e+02,1.434330347889699624e+02,3.299917081737512490e+02,1.983599639501917409e+02,9.484992027282714844e+00,2.677215635776519775e-01,-2.677215635776519775e-01,3.400000000000000000e+02
2.490149655624627485e+02,2.385085797579740756e+02,3.122065124269574881e+02,2.259004586253358866e+02,1.925397428045034758e+02,1.920257284625258762e+02,2.190561113528747228e+02,2.727100054528236797e+02,9.484992027282714844e+00,2.677215635776519775e-01,-2.677215635776519775e-01,3.410000000000000000e+02
2.572147687934993883e+02,2.435610973649891093e+02,3.217529793985668221e+02,2.287518062545204884e+02,2.012498133393601165e+02,2.027086539496376645e+02,2.027701619727886282e+02,2.704698038302958594e+02,9.484992027282714844e+00,2.677215635776519775e-01,-2.677215635776519775e-01,3.420000000000000000e+02
2.162367177456981153e+02,1.889360614201577846e+02,2.713229460007860325e+02,2.813364992936767521e+02,1.700562479979562340e+02,1.568650283489478170e+02,3.001933797235760721e+02,1.929249863294426177e+02,9.484992027282714844e+00,2.677215635776519775e-01,-2.677215635776519775e-01,3.430000000000000000e+02
1.792305219417539774e+02,1.441051070098692435e+02,2.251788493992789881e+02,3.044183388183373609e+02,1.372015109362691874e+02,1.148610232791106682e+02,3.733566618074837606e+02,1.454406900045578368e+02,9.484992027282714844e+00,2.677215635776519775e-01,-2.677215635776519775e-01,3.440000000000000000e+02
1.940536378692631843e+02,1.654426283316497575e+02,2.420648749535757815e+02,2.592669608236828935e+02,1.430136169716861332e+02,1.317407451159742777e+02,3.182013151646169717e+02,1.918122705158311874e+02,9.484992027282714844e+00,2.677215635776519775e-01,-2.677215635776519775e-01,3.450000000000000000e+02
2.368555394471186446e+02,2.189014680667896755e+02,2.950946454970980994e+02,2.008016168507892871e+02,1.752485276988591067e+02,1.805523257889653905e+02,2.081390307189503801e+02,2.655039464861765737e+02,9.484992027282714844e+00,2.677215635776519775e-01,-2.677215635776519775e-01,3.460000000000000000e+02
2.448321979443717282e+02,2.270886771692821640e+02,3.085164016355047352e+02,2.026967434098696685e+02,1.853086637710221112e+02,1.902498670301283710e+02,1.925506432313777623e+02,2.608923302072435035e+02,9.484992027282714844e+00,2.677215635776519775e-01,-2.677215635776519775e-01,3.470000000000000000e+02
2.038797144962227321e+02,1.772403689744751318e+02,2.610352333451737650e+02,2.567616246529942146e+02,1.537913821142501547e+02,1.443752263550049975e+02,2.903182362231309526e+02,1.792868542680371320e+02,9.484992027282714844e+00,2.677215635776519775e-01,-2.677215635776519775e-01,3.480000000000000000e+02
1.685298178661541897e+02,1.391907938178337645e+02,2.146638881580220186e+02,2.842396118528704392e+02,1.175538250011231867e+02,1.033211768669862067e+02,3.633690587968230830e+02,1.276686618141393410e+02,9.484992027282714844e+00,2.677215635776519775e-01,-2.677215635776519775e-01,3.490000000000000000e+02
1.856982689665455837e+02,1.666868629972741473e+02,2.292622148997179465e+02,2.442207212637877092e+02,1.203043371562889661e+02,1.208728598273519310e+02,3.072156488006512518e+02,1.713895126679635723e+02,9.484992027282714844e+00,2.677215635776519775e-01,-2.677215635776519775e-01,3.500000000000000000e+02
2.294756546117423568e+02,2.207961717012149165e+02,2.798410306877485709e+02,1.901806660182992346e+02,1.523577594130983925e+02,1.705917097891724552e+02,1.956539779718877980e+02,2.442003991245364887e+02,9.484992027282714844e+00,2.677215635776519775e-01,-2.677215635776519775e-01,3.510000000000000000e+02
2.375728219499069382e+02,2.240872598220521468e+02,2.913930180037423270e+02,1.954301730092192884e+02,1.634358132251436473e+02,1.818943847399496008e+02,1.790442328945209738e+02,2.399360474046698073e+02,9.484992027282714844e+00,2.677215635776519775e-01,-2.677215635776519775e-01,3.520000000000000000e+02
1.969314118280381081e+02,1.691358590969830402e+02,2.437606593863165472e+02,2.501077921677133418e+02,1.331244955802103505e+02,1.360710519005224342e+02,2.761496374462294625e+02,1.593316286224580836e+02,9.484992027282714844e+00,2.677215635776519775e-01,-2.677215635776519775e-01,3.530000000000000000e+02
1.601684085395027068e+02,1.287055381383106578e+02,2.000561275878280867e+02,2.739733192565108766e+02,1.002141959471555310e+02,9.191705578508845065e+01,3.481370802369565354e+02,1.090763594143645605e+02,9.484992027282714844e+00,2.677215635776519775e-01,-2.677215635776519775e-01,3.540000000000000000e+02
1.729289951630707947e+02,1.548342393891653046e+02,2.183841680414334405e+02,2.281622286157653434e+02,1.077779822260199580e+02,1.057427606956262025e+02,2.911792947875801474e+02,1.541439735477688373e+02,9.484992027282714844e+00,2.677215635776519775e-01,-2.677215635776519775e-01,3.550000000000000000e+02
2.124677169055430568e+02,2.082403926116385264e+02,2.704635846125383978e+02,1.700193998715476482e+02,1.413780052204820095e+02,1.539384499442239758e+02,1.795598979512578808e+02,2.273592877618648345e+02,9.484992027282714844e+00,2.677215635776519775e-01,-2.677215635776519775e-01,3.560000000000000000e+02
2.194748687996616354e+02,2.137514727363159182e+02,2.806284344236773904e+02,1.742987702558093588e+02,1.487390337916804128e+02,1.648980239062584587e+02,1.641059576208062936e+02,2.219955889263655990e+02,9.484992027282714844e+00,2.677215635776519775e-01,-2.677215635776519775e-01,3.570000000000000000e+02
1.796306283994563273e+02,1.629306687896314543e+02,2.303658270231971983e+02,2.301448803192688501e+02,1.129923531104213907e+02,1.182739767069724621e+02,2.619856882689273334e+02,1.400056571340901428e+02,9.484992027282714844e+00,2.677215635776519775e-01,-2.677215635776519775e-01,3.580000000000000000e+02
1.445456074825560790e+02,1.238651084229495609e+02,1.838011995653068880e+02,2.564421339367254404e+02,7.627182555160834454e+01,7.406613795406883582e+01,3.341609668364035315e+02,8.985348866763524711e+01,9.484992027282714844e+00,2.677215635776519775e-01,-2.677215635776519775e-01,3.590000000000000000e+02
1.616466187109617749e+02,1.472211006310390076e+02,2.001238715804502135e+02,2.136410429483512416e+02,8.185235184421617305e+01,8.931639593873114791e+01,2.783164561388402944e+02,1.361033235118520679e+02,9.484992027282714844e+00,2.677215635776519775e-01,-2.677215635776519775e-01,3.600000000000000000e+02
2.071045528791582910e+02,1.972273882186054834e+02,2.531310966004748479e+02,1.575577151818797574e+02,1.156820332758215955e+02,1.381765848999202717e+02,1.702753512568306178e+02,2.096846145864692517e+02,9.484992027282714844e+00,2.677215635776519775e-01,-2.677215635776519775e-01,3.610000000000000000e+02
2.164462735379420337e+02,2.009144820197616355e+02,2.670186890553450212e+02,1.616005998679756885e+02,1.264506133321701782e+02,1.480177342911556480e+02,1.585528606401639991e+02,2.038498730762657942e+02,9.484992027282714844e+00,2.677215635776519775e-01,-2.677215635776519775e-01,3.620000000000000000e+02
1.740981130476429826e+02,1.488075791661322000e+02,2.199025497083348455e+02,2.152707216633061762e+02,9.562748563470813679e+01,1.008917715925854282e+02,2.585414863506011898e+02,1.222586914072744548e+02,9.484992027282714844e+00,2.677215635776519775e-01,-2.677215635776519775e-01,3.630000000000000000e+02
1.364043290555491694e+02,1.090688192705929396e+02,1.740262291865947191e+02,2.391099625134665985e+02,6.237063918720377842e+01,5.791449355852091685e+01,3.312651654534711270e+02,7.361478247900959104e+01,9.484992027282714844e+00,2.677215635776519775e-01,-2.677215635776519775e-01,3.640000000000000000e+02
1.528236117131818901e+02,1.335792070685056387e+02,1.900135881396563491e+02,1.950559376946839620e+02,6.973010804380464833e+01,7.409958690831263084e+01,2.755948530660534743e+02,1.215105443718639435e+02,9.484992027282714844e+00,2.677215635776519775e-01,-2.677215635776519775e-01,3.650000000000000000e+02
1.956069079675362445e+02,1.846241054583661025e+02,2.421796339774518856e+02,1.394284766612108797e+02,1.052840124235153780e+02,1.235562484281763318e+02,1.675325941517658066e+02,1.976289997374333325e+02,9.484992027282714844e+00,2.677215635776519775e-01,-2.677215635776519775e-01,3.660000000000000000e+02
1.984266524996928638e+02,1.859574284166737925e+02,2.535531588282028679e+02,1.452672695697547169e+02,1.180174028306064429e+02,1.368044236033529160e+02,1.550202197830803925e+02,1.966733574873651378e+02,9.484992027282714844e+00,2.677215635776519775e-01,-2.677215635776519775e-01,3.670000000000000000e+02
1.498973168062657351e+02,1.292995889175799675e+02,2.038095749255226110e+02,2.013170623720143340e+02,8.908523645614332054e+01,9.608688805916608544e+01,2.541499403869820526e+02,1.209517698007621220e+02,9.484992027282714844e+00,2.677215635776519775e-01,-2.677215635776519775e-01,3.680000000000000000e+02
1.099679713464865927e+02,8.719736868372274330e+01,1.585817418951919535e+02,2.274057858661180944e+02,5.811919011512509314e+01,5.831036392584792338e+01,3.274049669916566927e+02,7.604394360721926205e+01,9.484992027282714844e+00,2.677215635776519775e-01,-2.677215635776519775e-01,3.690000000000000000e+02
1.269613167364004767e+02,1.133874420506617753e+02,1.777120557310845470e+02,1.852170205684524262e+02,6.771439660075702704e+01,7.646345694971387275e+01,2.732689737569598947e+02,1.246054783784929896e+02,9.523238182067871094e+00,3.824593424797058105e-01,-3.442134261131286621e-01,3.700000000000000000e+02
1.716232310631166911e+02,1.692346391809987836e+02,2.313773878653228167e+02,1.314894425166712608e+02,1.036416941726638470e+02,1.269672203131485730e+02,1.658413950272515649e+02,1.995629843561328016e+02,9.523238182067871094e+00,3.824593424797058105e-01,-3.442134261131286621e-01,3.710000000000000000e+02
1.782943315606389660e+02,1.772876503066872829e+02,2.418650763803598238e+02,1.396314173838400166e+02,1.145988606064347550e+02,1.414557485033219564e+02,1.527415792610117933e+02,1.963333601667618495e+02,9.523238182067871094e+00,3.824593424797058105e-01,-3.442134261131286621e-01,3.720000000000000000e+02
1.348479170614737086e+02,1.267455000392510556e+02,1.915491631908371346e+02,1.976645284929036279e+02,8.359887573299783980e+01,1.005365506760572316e+02,2.515520200176397339e+02,1.174931773942153086e+02,9.523238182067871094e+00,3.824593424797058105e-01,-3.442134261131286621e-01,3.730000000000000000e+02
9.841523420580051607e+01,8.653125406106119044e+01,1.464940785011131084e+02,2.242373035876807990e+02,5.142305583326378837e+01,6.132229868755530333e+01,3.252230500451260014e+02,6.982565615855855867e+01,9.523238182067871094e+00,3.824593424797058105e-01,-3.442134261131286621e-01,3.740000000000000000e+02
1.170301203380222432e+02,1.099395655663756770e+02,1.650229122951132013e+02,1.809481254906640970e+02,6.031630149830016308e+01,7.884423470544425072e+01,2.712789818840392400e+02,1.170116050855431240e+02,9.523238182067871094e+00,3.824593424797058105e-01,-3.442134261131286621e-01,3.750000000000000000e+02
1.643313141911567072e+02,1.616350390309380600e+02,2.185695233338192338e+02,1.251648554355779197e+02,9.626529624970135046e+01,1.286930145324367913e+02,1.636851163352257572e+02,1.916034587073445437e+02,9.523238182067871094e+00,3.824593424797058105e-01,-3.442134261131286621e-01,3.760000000000000000e+02
1.752803909273206955e+02,1.665353016741064494e+02,2.318497279733710457e+02,1.303799556288431631e+02,1.087659925131883938e+02,1.400123229071905371e+02,1.507674666842794977e+02,1.884816819922707509e+02,9.523238182067871094e+00,3.824593424797058105e-01,-3.442134261131286621e-01,3.770000000000000000e+02
1.341592867504732567e+02,1.139083188005897682e+02,1.857592870914886589e+02,1.851518404865055345e+02,8.008955480446456932e+01,9.471928103358368389e+01,2.498211998684710125e+02,1.103947391250330838e+02,9.523238182067871094e+00,3.824593424797058105e-01,-3.442134261131286621e-01,3.780000000000000000e+02
9.540461937656800728e+01,7.270901006092753960e+01,1.428339444124940201e+02,2.102217795743927127e+02,4.911165084896492772e+01,5.366028210520016728e+01,3.232104522504523629e+02,6.405111152018071152e+01,9.523238182067871094e+00,3.824593424797058105e-01,-3.442134261131286621e-01,3.790000000000000000e+02
1.089033909372737980e+02,9.574452596639457624e+01,1.613715153442535666e+02,1.686053612128234818e+02,5.780255910543928621e+01,7.203657788994314615e+01,2.694811757381394273e+02,1.126558579909979017e+02,9.523238182067871094e+00,3.824593424797058105e-01,-3.442134261131286621e-01,3.800000000000000000e+02
1.519495197351716342e+02,1.463442960591128212e+02,2.153097370454706834e+02,1.162487100692233071e+02,9.376125810210214695e+01,1.224325171030068304e+02,1.639659451364859706e+02,1.885347983443352859e+02,9.523238182067871094e+00,3.824593424797058105e-01,-3.442134261131286621e-01,3.810000000000000000e+02
1.616392323577310890e+02,1.507437003599916352e+02,2.295108184942728258e+02,1.244450800756094395e+02,1.068918306678169756e+02,1.327248441291376366e+02,1.541898357597383438e+02,1.859028436506850994e+02,9.523238182067871094e+00,3.824593424797058105e-01,-3.442134261131286621e-01,3.820000000000000000e+02
1.231694543385165161e+02,1.016876130806776928e+02,1.831841590307449223e+02,1.813037503504165215e+02,7.762772318124189042e+01,8.549179091123369290e+01,2.552481972170062363e+02,1.061776668180100387e+02,9.523238182067871094e+00,3.824593424797058105e-01,-3.442134261131286621e-01,3.830000000000000000e+02
9.068100218508334365e+01,6.743665501422947273e+01,1.392519098958437098e+02,2.077564256329860655e+02,4.403434808357997099e+01,4.142894641136808787e+01,3.290583010928821750e+02,5.610636511455959408e+01,9.523238182067871094e+00,3.824593424797058105e-01,-3.442134261131286621e-01,3.840000000000000000e+02
1.107149793579374091e+02,9.594687914352834923e+01,1.576078447306936141e+02,1.664046604174727690e+02,5.024234161971253343e+01,5.581830299798457418e+01,2.754707583391573280e+02,1.010739048382165493e+02,9.523238182067871094e+00,3.824593424797058105e-01,-3.442134261131286621e-01,3.850000000000000000e+02
1.556625852838333230e+02,1.490895903234049911e+02,2.115275381075916812e+02,1.135235979286953807e+02,8.563626870168809546e+01,1.034490714945495711e+02,1.704780126703262795e+02,1.752748649420391303e+02,9.523238182067871094e+00,3.824593424797058105e-01,-3.442134261131286621e-01,3.860000000000000000e+02
1.617159685575534240e+02,1.556458354013884673e+02,2.243944229710468790e+02,1.210413570111559238e+02,9.902609626740013482e+01,1.145383138543911627e+02,1.595806579492345918e+02,1.732360091663795174e+02,9.523238182067871094e+00,3.824593424797058105e-01,-3.442134261131286621e-01,3.870000000000000000e+02
1.178988800810911926e+02,1.076596848119588685e+02,1.769016627617093036e+02,1.777738689197794884e+02,6.970153228251729161e+01,7.139834105480986182e+01,2.588445773841231130e+02,9.642832579489913769e+01,9.523238182067871094e+00,3.824593424797058105e-01,-3.442134261131286621e-01,3.880000000000000000e+02
8.218538035585515900e+01,7.074045245045272168e+01,1.346758450939742033e+02,2.038314244298380800e+02,3.770339836774655851e+01,3.366739116700045997e+01,3.306418834905925905e+02,5.182310449353826698e+01,9.523238182067871094e+00,3.824593424797058105e-01,-3.442134261131286621e-01,3.890000000000000000e+02
1.013606181071954779e+02,9.455829247334622778e+01,1.569452460728789447e+02,1.623658656889165286e+02,4.811871702249482041e+01,5.573232635053864215e+01,2.750330055881786393e+02,1.031439930645356071e+02,9.523238182067871094e+00,3.824593424797058105e-01,-3.442134261131286621e-01,3.900000000000000000e+02
1.471916616296075517e+02,1.445179749630115111e+02,2.139796839802729664e+02,1.108914089389290893e+02,8.730973471757897642e+01,1.105273314051300986e+02,1.677807469695108011e+02,1.818438552708612406e+02,9.446745872497558594e+00,2.677215635776519775e-01,-3.442134261131286621e-01,3.910000000000000000e+02
1.561158081488829339e+02,1.479380288591637509e+02,2.282490107729099691e+02,1.209412784810847370e+02,1.017320526598341530e+02,1.258527236256995820e+02,1.558229984690115089e+02,1.817162957694017678e+02,9.446745872497558594e+00,2.677215635776519775e-01,-3.442134261131286621e-01,3.920000000000000000e+02
1.164106979814096121e+02,9.465605309939564904e+01,1.810928532030593487e+02,1.785875693196139764e+02,7.286225859235855751e+01,8.379566304861509707e+01,2.543852747852652101e+02,1.054886276204269961e+02,9.446745872497558594e+00,2.677215635776519775e-01,-3.442134261131286621e-01,3.930000000000000000e+02
8.338456660839437973e+01,5.371848832826799480e+01,1.371257363913027802e+02,2.038810675609274767e+02,4.191328802431235090e+01,4.511301841634849552e+01,3.261246178667934146e+02,5.999544537388283061e+01,9.446745872497558594e+00,2.677215635776519775e-01,-3.442134261131286621e-01,3.940000000000000000e+02
1.029685959072521655e+02,7.917978978134487988e+01,1.547556457232421963e+02,1.616884166834788630e+02,5.114121961364435265e+01,6.474287724267924204e+01,2.708631327612383757e+02,1.079236115830572089e+02,9.446745872497558594e+00,2.677215635776519775e-01,-3.442134261131286621e-01,3.950000000000000000e+02
1.483710847536422079e+02,1.341024747180199483e+02,2.069154612646671012e+02,1.097390076789888553e+02,8.596357663613889599e+01,1.160332137683653855e+02,1.642533570288214833e+02,1.819650510830106214e+02,9.446745872497558594e+00,2.677215635776519775e-01,-3.442134261131286621e-01,3.960000000000000000e+02
1.563231711810512934e+02,1.410423126149689779e+02,2.191435399325564504e+02,1.183958523172041168e+02,9.699407523770059925e+01,1.282356366034655366e+02,1.532280379689473193e+02,1.788980656239000382e+02,9.446745872497558594e+00,2.677215635776519775e-01,-3.442134261131286621e-01,3.970000000000000000e+02
