F3,F4,C3,C4,P3,P4,Cz,Pz,Accel_x,Accel_y,Accel_z,Sample
-3.046807250939309597e-11,1.136868377216160297e-11,8.640199666842818260e-12,1.364242052659392357e-11,4.547473508864641190e-13,2.683009370230138302e-11,-9.094947017729282379e-12,-1.818989403545856476e-12,9.523238182067871094e+00,2.677215635776519775e-01,-1.529837548732757568e-01,0.000000000000000000e+00
-2.955481746934492548e+02,-3.547753345006635755e+02,-6.916538986164255221e+02,-6.282793369255186917e+02,-2.655842059830174549e+02,-6.337255919844997152e+02,-1.030628299098471416e+03,-3.967829673193346025e+02,9.523238182067871094e+00,2.677215635776519775e-01,-1.529837548732757568e-01,1.000000000000000000e+00
-4.196208031817059236e+02,-5.230885502935600471e+02,-9.255112716666685628e+02,-1.355077639473586260e+03,-3.808650807011522375e+02,-8.825391283714602650e+02,-1.967927955520897285e+03,-5.616876887143116619e+02,9.523238182067871094e+00,2.677215635776519775e-01,-1.529837548732757568e-01,2.000000000000000000e+00
-3.500335347102936794e+02,-4.939571127904948753e+02,-7.920293586336363205e+02,-2.176431489145022169e+03,-3.339942504017130886e+02,-8.055630301933933879e+02,-2.717561086298040209e+03,-5.112939600836755289e+02,9.523238182067871094e+00,2.677215635776519775e-01,-1.529837548732757568e-01,3.000000000000000000e+00
-2.076325762605902128e+02,-3.921040553771795203e+02,-6.408833303974761293e+02,-2.683144802313649052e+03,-2.366318714334597644e+02,-6.964128166693001276e+02,-3.107865160140250737e+03,-3.870184348740333462e+02,9.523238182067871094e+00,2.677215635776519775e-01,-1.529837548732757568e-01,4.000000000000000000e+00
-5.963484839006878246e+01,-2.684010646388285295e+02,-5.261427722066923707e+02,-2.551322159534147431e+03,-1.390777702558270903e+02,-6.155673367485446761e+02,-3.258629699902535322e+03,-2.157547037961130627e+02,9.523238182067871094e+00,2.677215635776519775e-01,-1.529837548732757568e-01,5.000000000000000000e+00
1.549148532328122201e+02,-6.732415210431804553e+01,-2.997884869286071989e+02,-2.381849436932177468e+03,2.763560819872282082e+01,-4.309907386017951012e+02,-3.706791289960383438e+03,2.635244722806351092e+01,9.523238182067871094e+00,2.677215635776519775e-01,-1.529837548732757568e-01,6.000000000000000000e+00
4.061263931626453996e+02,1.553383776707501056e+02,-3.411133049371710513e+01,-3.006289473565814205e+03,2.399392698708329590e+02,-2.015453136056330550e+02,-4.489174475356623589e+03,2.281455897739197098e+02,9.523238182067871094e+00,2.677215635776519775e-01,-1.529837548732757568e-01,7.000000000000000000e+00
5.311391259937058749e+02,2.420871841503314954e+02,7.815966027027207019e+01,-4.060347268035242450e+03,3.417987346600766614e+02,-1.234258038228058467e+02,-4.897145542250194922e+03,2.794252036036082245e+02,9.523238182067871094e+00,2.677215635776519775e-01,-1.529837548732757568e-01,8.000000000000000000e+00
5.796345763848180468e+02,2.698428892680033186e+02,1.308115665586828982e+02,-4.523788685394953973e+03,3.667374330613256461e+02,-1.140915415920833311e+02,-4.976671235663438893e+03,3.303691291345060108e+02,9.523238182067871094e+00,2.677215635776519775e-01,-1.529837548732757568e-01,9.000000000000000000e+00
8.221463165528798527e+02,5.052597398317757325e+02,3.757172673353118171e+02,-4.419911161332133815e+03,5.584818900480308912e+02,1.017149483005414368e+02,-5.791315721744795155e+03,6.013825267090112447e+02,9.523238182067871094e+00,2.677215635776519775e-01,-1.529837548732757568e-01,1.000000000000000000e+01
1.190466608863658166e+03,8.626088693609567599e+02,7.260466603583702181e+02,-4.571924156689661686e+03,8.693972793569762416e+02,4.365327719086262732e+02,-7.137396597013261271e+03,9.506106932384971060e+02,9.523238182067871094e+00,2.677215635776519775e-01,-1.529837548732757568e-01,1.100000000000000000e+01
1.317189097731615220e+03,9.786744968796265312e+02,8.813873838119570792e+02,-5.142505508307596756e+03,9.788006751739426363e+02,5.460033588926376069e+02,-7.572705466046091715e+03,1.060704444429396972e+03,9.523238182067871094e+00,2.677215635776519775e-01,-1.529837548732757568e-01,1.200000000000000000e+01
1.291677364829015005e+03,9.396632366306162112e+02,9.055319256583238712e+02,-5.671721022754723890e+03,9.560668639088851251e+02,5.133044894473960085e+02,-7.501112266783118685e+03,1.027210880358702298e+03,9.523238182067871094e+00,2.677215635776519775e-01,-1.529837548732757568e-01,1.300000000000000000e+01
1.551651574357057598e+03,1.169122523650787571e+03,1.115357853367794633e+03,-5.918550208362791636e+03,1.176542121950165892e+03,7.209266427043053227e+02,-8.694201043043518439e+03,1.215180346848480212e+03,9.523238182067871094e+00,2.677215635776519775e-01,-1.529837548732757568e-01,1.400000000000000000e+01
1.931359735452358336e+03,1.530177403630903882e+03,1.437346181563407981e+03,-5.737843932003254849e+03,1.494290466414643788e+03,1.044502493854607792e+03,-1.029542037905268262e+04,1.556139947568502748e+03,9.523238182067871094e+00,2.677215635776519775e-01,-1.529837548732757568e-01,1.500000000000000000e+01
1.937885999822237864e+03,1.561703186839587488e+03,1.558783843924182293e+03,-5.179015074586905030e+03,1.486328333359077078e+03,1.080375738528667625e+03,-1.018743788845628660e+04,1.684310497715358906e+03,9.523238182067871094e+00,2.677215635776519775e-01,-1.529837548732757568e-01,1.600000000000000000e+01
1.931544885458476756e+03,1.562801162160388230e+03,1.640003094935492754e+03,-5.128372534470767278e+03,1.480863627386544294e+03,1.093145048666951880e+03,-1.015799096482378445e+04,1.720896665570503274e+03,9.523238182067871094e+00,2.677215635776519775e-01,-1.529837548732757568e-01,1.700000000000000000e+01
2.508781987452375688e+03,2.070397498018589886e+03,2.008579510204461712e+03,-6.120175085833017874e+03,1.998114480263023324e+03,1.543648033667333038e+03,-1.293491326282877526e+04,2.029369403138125108e+03,9.523238182067871094e+00,2.677215635776519775e-01,-1.529837548732757568e-01,1.800000000000000000e+01
2.823793295537665472e+03,2.356041862450697408e+03,2.233695504415256437e+03,-6.479397066618425924e+03,2.273369010089212679e+03,1.790414007006659403e+03,-1.454167547830929470e+04,2.239974095459288947e+03,9.523238182067871094e+00,2.677215635776519775e-01,-1.529837548732757568e-01,1.900000000000000000e+01
1.470258525979601245e+03,1.179774594553068482e+03,1.574423796358868003e+03,-4.162533331698933580e+03,1.059127771843782739e+03,7.632103733137460040e+02,-8.445283197857364939e+03,1.609037956968400522e+03,9.523238182067871094e+00,2.677215635776519775e-01,-1.529837548732757568e-01,2.000000000000000000e+01
-9.693520384787425428e+02,-9.568058922278755745e+02,3.376127301013341366e+02,-3.910989311087714668e+02,-1.112793808736100118e+03,-1.089241027809346406e+03,2.706353326554739397e+03,3.817578540596214225e+02,9.484992027282714844e+00,1.529837548732757568e-01,-1.912296712398529053e-01,2.100000000000000000e+01
-2.367096452649418552e+03,-2.184810504075398967e+03,-3.516582622580031057e+02,1.523390701594937127e+03,-2.344635680311414944e+03,-2.143925764198463185e+03,8.993601282199710113e+03,-3.492843031684917605e+02,9.484992027282714844e+00,1.529837548732757568e-01,-1.912296712398529053e-01,2.200000000000000000e+01
-2.091160711639762212e+03,-1.942304057637142932e+03,-1.576080111132009733e+02,9.045389748503550891e+02,-2.084553546896205717e+03,-1.922945840966068545e+03,7.338508246925131061e+03,-2.078442819963061083e+02,9.484992027282714844e+00,1.529837548732757568e-01,-1.912296712398529053e-01,2.300000000000000000e+01
-1.513521081221712166e+03,-1.425761062353737088e+03,2.076557104029054699e+02,1.289451559518606700e+02,-1.565512919250325467e+03,-1.468395996980961172e+03,4.294198115167300784e+03,1.499653121076778461e+02,9.484992027282714844e+00,1.529837548732757568e-01,-1.912296712398529053e-01,2.400000000000000000e+01
-1.506782802415516244e+03,-1.397163498559427580e+03,3.015456765118890416e+02,5.116425850315783919e+02,-1.564045580263412830e+03,-1.433957042493319250e+03,4.421717717529855690e+03,2.762920738668567537e+02,9.484992027282714844e+00,1.529837548732757568e-01,-1.912296712398529053e-01,2.500000000000000000e+01
-1.528121630102265499e+03,-1.389451928438968025e+03,3.996093149848497887e+02,1.009642453956347708e+03,-1.586147769020454234e+03,-1.409093409943889128e+03,5.132800819393989514e+03,3.873943959420125793e+02,9.484992027282714844e+00,1.529837548732757568e-01,-1.912296712398529053e-01,2.600000000000000000e+01
-1.221749244155189444e+03,-1.108355124012136912e+03,6.435206811018917961e+02,9.341035320696021245e+02,-1.307663887026341399e+03,-1.146989391133722620e+03,3.860098763324671836e+03,5.924445999220749854e+02,9.484992027282714844e+00,1.529837548732757568e-01,-1.912296712398529053e-01,2.700000000000000000e+01
-1.024112636530215696e+03,-9.377415116562292496e+02,7.833858814185323354e+02,9.556503452918698258e+02,-1.123157831133916488e+03,-9.921197346300191384e+02,2.291810538057997746e+03,6.801828725145874159e+02,9.484992027282714844e+00,1.529837548732757568e-01,-1.912296712398529053e-01,2.800000000000000000e+01
-1.065280352235443615e+03,-9.689259430162546778e+02,7.971027368930062948e+02,1.337104349752647749e+03,-1.160048971354810874e+03,-1.020108264275903366e+03,2.160168364511460368e+03,6.849127083958612729e+02,9.484992027282714844e+00,1.529837548732757568e-01,-1.912296712398529053e-01,2.900000000000000000e+01
-9.497530616031062891e+02,-8.408868498165643359e+02,9.430322071439200045e+02,1.511671551498688132e+03,-1.066259971061331271e+03,-9.033278176418093608e+02,2.487998584119628504e+03,8.608975222670280800e+02,9.484992027282714844e+00,1.529837548732757568e-01,-1.912296712398529053e-01,3.000000000000000000e+01
-6.423247341213332220e+02,-5.405477211933152830e+02,1.214693339034127348e+03,1.410400860195549967e+03,-7.973964307657092832e+02,-6.270674119845780297e+02,2.020474488951790363e+03,1.142831303080292400e+03,9.484992027282714844e+00,1.529837548732757568e-01,-1.912296712398529053e-01,3.100000000000000000e+01
-4.909954745250236101e+02,-3.970716671282693824e+02,1.363439130714219573e+03,1.526061036179251914e+03,-6.559289155849512554e+02,-4.890420626424711372e+02,1.024369335040509441e+03,1.250186869221528013e+03,9.484992027282714844e+00,1.529837548732757568e-01,-1.912296712398529053e-01,3.200000000000000000e+01
-5.101750265143652996e+02,-4.181542970430946298e+02,1.373719891277504985e+03,1.867086232013481776e+03,-6.646510858393598937e+02,-5.039982918449439921e+02,2.600964011380010561e+02,1.205825151909295755e+03,9.484992027282714844e+00,1.529837548732757568e-01,-1.912296712398529053e-01,3.300000000000000000e+01
-4.258210073379408414e+02,-3.383041722391672010e+02,1.448736265668422675e+03,2.029700825157442978e+03,-5.925414934299790275e+02,-4.345066748469437243e+02,-1.231001038425420120e+02,1.268259290340036159e+03,9.484992027282714844e+00,1.529837548732757568e-01,-1.912296712398529053e-01,3.400000000000000000e+01
-2.110361548895841679e+02,-1.241212321051114031e+02,1.642375638422158545e+03,1.989348478561748834e+03,-4.120264287297596866e+02,-2.408509715438424337e+02,-4.586423621148151142e+02,1.488370102636156616e+03,9.484992027282714844e+00,1.529837548732757568e-01,-1.912296712398529053e-01,3.500000000000000000e+01
-4.257419674837319690e+01,5.233644249328983733e+01,1.829887158657285454e+03,2.040574181472999044e+03,-2.652597013989151264e+02,-7.259976127696268122e+01,-8.985615069543473510e+02,1.685234066448816975e+03,9.484992027282714844e+00,1.529837548732757568e-01,-1.912296712398529053e-01,3.600000000000000000e+01
3.856582963034020395e+01,1.347941654332789767e+02,1.933538251810311522e+03,2.253173649720871254e+03,-1.841767431988517956e+02,1.115127484495212684e+01,-1.329020925435473146e+03,1.749064683586574120e+03,9.484992027282714844e+00,1.529837548732757568e-01,-1.912296712398529053e-01,3.700000000000000000e+01
1.053885121733489996e+02,1.897551524829458458e+02,1.985672609673014904e+03,2.448250226929959808e+03,-1.162343984806834669e+02,6.129901399264349493e+01,-2.020510834530504326e+03,1.748614489242349009e+03,9.484992027282714844e+00,1.529837548732757568e-01,-1.912296712398529053e-01,3.800000000000000000e+01
1.953329417845160378e+02,2.722229203164293949e+02,2.055485898006952539e+03,2.518501654984160268e+03,-3.927757104327599791e+01,1.314562664622119428e+02,-3.194197949661983330e+03,1.809073276949618503e+03,9.484992027282714844e+00,1.529837548732757568e-01,-1.912296712398529053e-01,3.900000000000000000e+01
3.244255681387652430e+02,4.090757700771399641e+02,2.190116259876469030e+03,2.545587095706528089e+03,6.679600186692903208e+01,2.563127750579674284e+02,-3.796127449706190873e+03,1.976385561553483058e+03,9.484992027282714844e+00,1.529837548732757568e-01,-1.912296712398529053e-01,4.000000000000000000e+01
4.830594426041675433e+02,5.768517193700278085e+02,2.361052927702316083e+03,2.649541432217121837e+03,2.074025045424001519e+02,4.163570636667361669e+02,-3.098788834727650283e+03,2.163886107163006727e+03,9.484992027282714844e+00,1.529837548732757568e-01,-1.912296712398529053e-01,4.100000000000000000e+01
6.013080065583620808e+02,6.907273201163858403e+02,2.477465692218893309e+03,2.791504786221883478e+03,3.230563483942138419e+02,5.262678421995640292e+02,-3.262116933685795630e+03,2.245326634517608909e+03,9.484992027282714844e+00,1.529837548732757568e-01,-1.912296712398529053e-01,4.200000000000000000e+01
6.453906597559472402e+02,7.223878125455636336e+02,2.510970166763610905e+03,2.853196121053706975e+03,3.726397687826075753e+02,5.544591400965269941e+02,-6.049338132371182837e+03,2.229619758950523646e+03,9.484992027282714844e+00,1.529837548732757568e-01,-1.912296712398529053e-01,4.300000000000000000e+01
6.947130984308516872e+02,7.667348020488248039e+02,2.551759038704294653e+03,2.938961843623602817e+03,4.178295908987206531e+02,5.922461450015043738e+02,-7.488664627699494304e+03,2.265368095251194973e+03,9.484992027282714844e+00,1.529837548732757568e-01,-1.912296712398529053e-01,4.400000000000000000e+01
8.250464965058503140e+02,9.033748596252991092e+02,2.680770447108316148e+03,3.308732982538753276e+03,5.307487808201379949e+02,7.210378826232630445e+02,-2.119522630214028595e+03,2.430841868086281011e+03,9.484992027282714844e+00,1.529837548732757568e-01,-1.912296712398529053e-01,4.500000000000000000e+01
9.866798129091147302e+02,1.070115766065495109e+03,2.848109944045204884e+03,3.912391229588780334e+03,6.786287815550692812e+02,8.854526929658110248e+02,7.496548366317252658e+03,2.616052435728421642e+03,9.446745872497558594e+00,1.529837548732757568e-01,-3.059675097465515137e-01,4.600000000000000000e+01
1.079705601426028124e+03,1.155270450328183870e+03,2.945016862258625679e+03,4.364818103282683296e+03,7.757806518570354228e+02,9.767726772089717997e+02,1.284218026209643904e+04,2.679195659580786923e+03,9.446745872497558594e+00,1.529837548732757568e-01,-3.059675097465515137e-01,4.700000000000000000e+01
1.100943571993728710e+03,1.161480461913092313e+03,2.959609825196187558e+03,4.487169661400314908e+03,8.098576201974897231e+02,9.907524788957853161e+02,1.139039341831832644e+04,2.647628457450216501e+03,9.446745872497558594e+00,1.529837548732757568e-01,-3.059675097465515137e-01,4.800000000000000000e+01
1.143089278879226640e+03,1.198140996265412014e+03,2.991137144055125646e+03,4.482070871562553293e+03,8.523285848629740258e+02,1.026231939934848697e+03,8.855681729572725089e+03,2.675685165046431393e+03,9.446745872497558594e+00,1.529837548732757568e-01,-3.059675097465515137e-01,4.900000000000000000e+01
1.260572602454727530e+03,1.324664565109584828e+03,3.108985079738449258e+03,4.530034359628108177e+03,9.527948214112367396e+02,1.141713485671471517e+03,9.228984734795296390e+03,2.827033699938301652e+03,9.446745872497558594e+00,1.529837548732757568e-01,-3.059675097465515137e-01,5.000000000000000000e+01
1.405226959611378334e+03,1.478253318254150145e+03,3.261857990852115563e+03,4.589040021140948738e+03,1.080377646154530794e+03,1.285181833301426423e+03,1.021568650482114754e+04,2.993344052578939682e+03,9.446745872497558594e+00,1.529837548732757568e-01,-3.059675097465515137e-01,5.100000000000000000e+01
1.488477208611774586e+03,1.557141998321421397e+03,3.345792902379760562e+03,4.647098740451926460e+03,1.163136342073765036e+03,1.364483734435718134e+03,9.459489251787275862e+03,3.042551354712454213e+03,9.446745872497558594e+00,1.529837548732757568e-01,-3.059675097465515137e-01,5.200000000000000000e+01
1.504958667234454424e+03,1.561386923429695344e+03,3.348276736632229586e+03,4.765467089387881060e+03,1.188808963203191979e+03,1.374214234914451254e+03,8.229285117181905662e+03,3.002283287553050286e+03,9.446745872497558594e+00,1.529837548732757568e-01,-3.059675097465515137e-01,5.300000000000000000e+01
1.539513729206743847e+03,1.591094572335825887e+03,3.365180632802075252e+03,4.882143244318251163e+03,1.222301216118475395e+03,1.402535702796367559e+03,7.850200386288765912e+03,3.021541426852084896e+03,9.446745872497558594e+00,1.529837548732757568e-01,-3.059675097465515137e-01,5.400000000000000000e+01
1.647591739361207374e+03,1.706505712042701589e+03,3.467733768331416741e+03,4.889465495491228467e+03,1.314938931068658803e+03,1.510144256080713831e+03,7.720942166974315114e+03,3.163919918192077148e+03,9.446745872497558594e+00,1.529837548732757568e-01,-3.059675097465515137e-01,5.500000000000000000e+01
1.777962700579294506e+03,1.845557362420357777e+03,3.604988729151609732e+03,4.858496486217592064e+03,1.432340629768938470e+03,1.646179343204061752e+03,7.455797339156504677e+03,3.319221274969626847e+03,9.446745872497558594e+00,1.529837548732757568e-01,-3.059675097465515137e-01,5.600000000000000000e+01
1.845455135623085880e+03,1.911276272222623675e+03,3.675821141802799957e+03,4.934346174570729090e+03,1.502425782847733217e+03,1.716534088538929609e+03,7.292715181532375027e+03,3.356034668661836804e+03,9.446745872497558594e+00,1.529837548732757568e-01,-3.059675097465515137e-01,5.700000000000000000e+01
1.849720951752644623e+03,1.906074264872244612e+03,3.669027741539880026e+03,5.083588607467909242e+03,1.516258559329020500e+03,1.713205149549181669e+03,6.769101735864993316e+03,3.303342994593276671e+03,9.446745872497558594e+00,1.529837548732757568e-01,-3.059675097465515137e-01,5.800000000000000000e+01
1.874945814691815485e+03,1.928144574333831088e+03,3.677875710880936367e+03,5.156387764564452482e+03,1.540589820225282892e+03,1.726784958528023935e+03,5.707441161880643449e+03,3.309804936663671015e+03,9.446745872497558594e+00,1.529837548732757568e-01,-3.059675097465515137e-01,5.900000000000000000e+01
1.974238212524275923e+03,2.036006222825812074e+03,3.770816769620275409e+03,5.128464876196710975e+03,1.625745187458338705e+03,1.822225730886706060e+03,5.205084966107751825e+03,3.438689473881987851e+03,9.446745872497558594e+00,1.529837548732757568e-01,-3.059675097465515137e-01,6.000000000000000000e+01
2.098347830220957803e+03,2.167259097119883336e+03,3.897601914964833213e+03,5.115385332989309063e+03,1.737235444937530474e+03,1.948732061312828137e+03,5.595050969237932804e+03,3.581999952637518163e+03,9.446745872497558594e+00,1.529837548732757568e-01,-3.059675097465515137e-01,6.100000000000000000e+01
2.163004993887643195e+03,2.223870962159481223e+03,3.959344760329631299e+03,5.191547663734334492e+03,1.803862974645392569e+03,2.010287437653461211e+03,5.459134768121190973e+03,3.610391227903821800e+03,9.446745872497558594e+00,1.529837548732757568e-01,-3.059675097465515137e-01,6.200000000000000000e+01
2.162209520815801170e+03,2.207871990242836546e+03,3.945129205582080431e+03,5.305961324488398532e+03,1.814638513209893063e+03,1.999295981597493892e+03,4.267653147361722404e+03,3.551005964284815036e+03,9.446745872497558594e+00,1.529837548732757568e-01,-3.059675097465515137e-01,6.300000000000000000e+01
2.175832073510488044e+03,2.219401379307998013e+03,3.946666431412074871e+03,5.363785242595909949e+03,1.832634763107621666e+03,2.006523694720766116e+03,3.436438546184219831e+03,3.549333581264951590e+03,9.446745872497558594e+00,1.529837548732757568e-01,-3.059675097465515137e-01,6.400000000000000000e+01
2.261643160425196129e+03,2.318430978577981477e+03,4.030941772077119367e+03,5.341979753013152731e+03,1.908094095182653291e+03,2.094393657095226445e+03,3.520330361050196188e+03,3.668845795141637609e+03,9.446745872497558594e+00,1.529837548732757568e-01,-3.059675097465515137e-01,6.500000000000000000e+01
2.376630362480164877e+03,2.442127451301365454e+03,4.146871403218627165e+03,5.317544588445806767e+03,2.009093516755692235e+03,2.211145870703876881e+03,3.323964012100729178e+03,3.803593258831310777e+03,9.446745872497558594e+00,1.529837548732757568e-01,-3.059675097465515137e-01,6.600000000000000000e+01
2.435421940211644596e+03,2.492713323576485891e+03,4.195566643477259277e+03,5.372931358139308941e+03,2.064855744872794276e+03,2.263861086424664336e+03,2.653455963281105142e+03,3.823915462828605541e+03,9.446745872497558594e+00,1.529837548732757568e-01,-3.059675097465515137e-01,6.700000000000000000e+01
2.428170046155942146e+03,2.472299973824966401e+03,4.167302221477919375e+03,5.481714221093252490e+03,2.063682473703239339e+03,2.246967752484776156e+03,2.604596166459351025e+03,3.755270448641211260e+03,9.446745872497558594e+00,1.529837548732757568e-01,-3.059675097465515137e-01,6.800000000000000000e+01
2.434799047738505124e+03,2.477653550418292980e+03,4.155006500112223875e+03,5.537009345230433610e+03,2.070261947717364365e+03,2.248942490849556634e+03,2.716106682839952555e+03,3.743341314190464800e+03,9.446745872497558594e+00,1.529837548732757568e-01,-3.059675097465515137e-01,6.900000000000000000e+01
2.513290115524890552e+03,2.565395435100579562e+03,4.225844633811875610e+03,5.501137514950287368e+03,2.136781982603551114e+03,2.330153407948465428e+03,1.726904803290743530e+03,3.853005286138446081e+03,9.446745872497558594e+00,1.529837548732757568e-01,-3.059675097465515137e-01,7.000000000000000000e+01
2.617702520615799585e+03,2.675353894286401101e+03,4.329718131966588771e+03,5.463097296895645741e+03,2.230877363782789871e+03,2.440171400890856148e+03,1.279579203647348550e+03,3.979050325248557328e+03,9.446745872497558594e+00,1.529837548732757568e-01,-3.059675097465515137e-01,7.100000000000000000e+01
2.662807315777047734e+03,2.715180539132727517e+03,4.370560105820773970e+03,5.513973491892094899e+03,2.281143799753820986e+03,2.486922766208104349e+03,4.342968244163962481e+03,3.992330941838687068e+03,9.446745872497558594e+00,1.529837548732757568e-01,-3.059675097465515137e-01,7.200000000000000000e+01
2.644906996395358874e+03,2.687730757037009880e+03,4.339502267067855428e+03,5.617745487866483927e+03,2.276208526703544976e+03,2.462749036448036804e+03,9.731414780426550351e+03,3.918302775795591060e+03,9.446745872497558594e+00,2.294756323099136353e-01,-2.294756323099136353e-01,7.300000000000000000e+01
2.647403154952377918e+03,2.686866960194605781e+03,4.325498203518933224e+03,5.662536046934745173e+03,2.279263279834354307e+03,2.454926828916606155e+03,1.292001205554918306e+04,3.900736974730101338e+03,9.446745872497558594e+00,2.294756323099136353e-01,-2.294756323099136353e-01,7.400000000000000000e+01
2.723271484666983724e+03,2.768437862134087027e+03,4.391229998795004576e+03,5.617540764477992525e+03,2.339815469374587337e+03,2.525843518846272673e+03,1.253370303391134257e+04,4.002664053047531524e+03,9.446745872497558594e+00,2.294756323099136353e-01,-2.294756323099136353e-01,7.500000000000000000e+01
2.820713644309289521e+03,2.873192492911058253e+03,4.486731756443472477e+03,5.572180408132494449e+03,2.425954952270873946e+03,2.627038295637500141e+03,1.141762127391204376e+04,4.120097075119297187e+03,9.446745872497558594e+00,2.294756323099136353e-01,-2.294756323099136353e-01,7.600000000000000000e+01
2.856010177778273373e+03,2.907690220957254496e+03,4.518542366621282781e+03,5.612162351724904511e+03,2.469153329208240848e+03,2.666134450702345930e+03,1.140739930385892148e+04,4.125885204150075879e+03,9.446745872497558594e+00,2.294756323099136353e-01,-2.294756323099136353e-01,7.700000000000000000e+01
2.830308702932009510e+03,2.872776896369135557e+03,4.478483603477229735e+03,5.702138593510517239e+03,2.458544998987250437e+03,2.634757665545379496e+03,1.142927675755557357e+04,4.044359807598737461e+03,9.446745872497558594e+00,2.294756323099136353e-01,-2.294756323099136353e-01,7.800000000000000000e+01
2.827506421154573218e+03,2.862750144840661505e+03,4.455291103857048256e+03,5.736818019536754946e+03,2.455538393839304263e+03,2.620043883469290904e+03,1.081253058610046719e+04,4.017340566718425180e+03,9.446745872497558594e+00,2.294756323099136353e-01,-2.294756323099136353e-01,7.900000000000000000e+01
2.897962804972188223e+03,2.935749059870182464e+03,4.512884553799717651e+03,5.686275420791337638e+03,2.509112065559183065e+03,2.683804926083138980e+03,1.046684045673475885e+04,4.109155804225688371e+03,9.446745872497558594e+00,2.294756323099136353e-01,-2.294756323099136353e-01,8.000000000000000000e+01
2.989682163305231825e+03,3.033700554718462172e+03,4.602028450708008677e+03,5.635566059085246707e+03,2.587912031224658222e+03,2.777265296495210350e+03,1.067320113229680646e+04,4.218186979584455003e+03,9.446745872497558594e+00,2.294756323099136353e-01,-2.294756323099136353e-01,8.100000000000000000e+01
3.020212212926376651e+03,3.062420230195029035e+03,4.627572135461620746e+03,5.667138288411802932e+03,2.623253724708292339e+03,2.809309996610894814e+03,1.072283656180764046e+04,4.217077706039039185e+03,9.446745872497558594e+00,2.294756323099136353e-01,-2.294756323099136353e-01,8.200000000000000000e+01
2.989069037693533573e+03,3.021554744948278767e+03,4.579769273782863820e+03,5.747976106068520494e+03,2.604489792797093287e+03,2.772922003625240905e+03,1.054823916086940699e+04,4.129486679517271114e+03,9.446745872497558594e+00,2.294756323099136353e-01,-2.294756323099136353e-01,8.300000000000000000e+01
2.977453773231005925e+03,3.004654900697356425e+03,4.548004419781620527e+03,5.775078398964957159e+03,2.594169958205208331e+03,2.754768677881291751e+03,1.058899799537371109e+04,4.098241495201233192e+03,9.446745872497558594e+00,2.294756323099136353e-01,-2.294756323099136353e-01,8.400000000000000000e+01
3.037321865152588543e+03,3.069105499897605114e+03,4.596941391773854775e+03,5.716993361326884951e+03,2.641478944804102412e+03,2.815404122179156730e+03,1.065516595660984058e+04,4.187161816416543843e+03,9.446745872497558594e+00,2.294756323099136353e-01,-2.294756323099136353e-01,8.500000000000000000e+01
3.121136267525919266e+03,3.156464550041051098e+03,4.676739031378459913e+03,5.657711476124151886e+03,2.714690272056237973e+03,2.905490358847803691e+03,1.042793062227246446e+04,4.291723254071289375e+03,9.446745872497558594e+00,2.294756323099136353e-01,-2.294756323099136353e-01,8.600000000000000000e+01
3.146863323956129989e+03,3.174479220701109625e+03,4.692565584009998929e+03,5.681466693603051681e+03,2.746113907659543202e+03,2.933530946006927479e+03,1.024853641668789351e+04,4.284446134882605293e+03,9.446745872497558594e+00,2.294756323099136353e-01,-2.294756323099136353e-01,8.700000000000000000e+01
3.109560527261379775e+03,3.126494699630037303e+03,4.636668073179753264e+03,5.756279677522954444e+03,2.725400119820581494e+03,2.892053234434094975e+03,1.040403168235507837e+04,4.192388775592052298e+03,9.446745872497558594e+00,2.294756323099136353e-01,-2.294756323099136353e-01,8.800000000000000000e+01
3.088039420164688636e+03,3.107090346466663050e+03,4.598854685680154944e+03,5.778196663391406219e+03,2.712030463226753909e+03,2.868052418951291202e+03,1.052328293059035968e+04,4.158562232148467956e+03,9.446745872497558594e+00,2.294756323099136353e-01,-2.294756323099136353e-01,8.900000000000000000e+01
3.137343983460395975e+03,3.170286046159900252e+03,4.641704259014073614e+03,5.715689194979335298e+03,2.752566017064343669e+03,2.922800016978676467e+03,1.031566723995021130e+04,4.242734495585604236e+03,9.446745872497558594e+00,2.294756323099136353e-01,-2.294756323099136353e-01,9.000000000000000000e+01
3.213378747068765279e+03,3.254433707765998861e+03,4.714751274909287531e+03,5.653268414158216729e+03,2.817713726446185774e+03,3.006953982975246163e+03,1.007841236405829113e+04,4.339730142434651498e+03,9.446745872497558594e+00,2.294756323099136353e-01,-2.294756323099136353e-01,9.100000000000000000e+01
3.233588709176888187e+03,3.267517132998044872e+03,4.725461077157980981e+03,5.673364218041387176e+03,2.843482171553980606e+03,3.028911137921334557e+03,1.009146062793410965e+04,4.326148093237537978e+03,9.446745872497558594e+00,2.294756323099136353e-01,-2.294756323099136353e-01,9.200000000000000000e+01
3.191702948023620138e+03,3.213793841574909493e+03,4.666956521000247449e+03,5.741352345433193477e+03,2.818797016888366670e+03,2.981826250548984717e+03,1.019481082845327728e+04,4.229969060318764605e+03,9.446745872497558594e+00,2.294756323099136353e-01,-2.294756323099136353e-01,9.300000000000000000e+01
3.167738517278633935e+03,3.187662427851216307e+03,4.626511173643219081e+03,5.753770280752839426e+03,2.800846980851106309e+03,2.952718884680819428e+03,1.016752065254585250e+04,4.190590037402459529e+03,9.446745872497558594e+00,2.294756323099136353e-01,-2.294756323099136353e-01,9.400000000000000000e+01
3.217218107766611411e+03,3.244692021886256043e+03,4.665050459709875213e+03,5.681859337061276165e+03,2.837343724404091517e+03,3.001323042924915626e+03,1.002897130479101543e+04,4.267156696352093604e+03,9.446745872497558594e+00,2.294756323099136353e-01,-2.294756323099136353e-01,9.500000000000000000e+01
3.292725215128141372e+03,3.326333565458753128e+03,4.733679920160922848e+03,5.611204205312133126e+03,2.900560165292613874e+03,3.077347115732326529e+03,9.883454298385926450e+03,4.357867961840032876e+03,9.446745872497558594e+00,2.294756323099136353e-01,-2.294756323099136353e-01,9.600000000000000000e+01
3.309016324071476902e+03,3.340054928928947447e+03,4.741028345987939247e+03,5.623450297608268556e+03,2.924263423167297788e+03,3.090681124867447579e+03,9.798909567395827253e+03,4.339760660609686965e+03,9.446745872497558594e+00,2.294756323099136353e-01,-2.294756323099136353e-01,9.700000000000000000e+01
3.262247457804097394e+03,3.285193872310667757e+03,4.679105709779227254e+03,5.684152381087279537e+03,2.895043411555762759e+03,3.036286784260224522e+03,9.831501629929298360e+03,4.237811148157903517e+03,9.446745872497558594e+00,2.294756323099136353e-01,-2.294756323099136353e-01,9.800000000000000000e+01
3.235249234986597003e+03,3.252904338960005589e+03,4.634590205465106919e+03,5.691179970900522676e+03,2.871423429905504690e+03,3.000744135808627107e+03,9.912791849310557154e+03,4.190917683743556154e+03,9.446745872497558594e+00,2.294756323099136353e-01,-2.294756323099136353e-01,9.900000000000000000e+01
3.280764495659977001e+03,3.300658282363639955e+03,4.668777922759354624e+03,5.616146676365176972e+03,2.902109477760294794e+03,3.042795833676761504e+03,9.814011339052220137e+03,4.260294942260351490e+03,9.446745872497558594e+00,2.294756323099136353e-01,-2.294756323099136353e-01,1.000000000000000000e+02
3.347798197147648807e+03,3.373509244287284218e+03,4.731532291437579261e+03,5.543733140195735359e+03,2.957457330725227621e+03,3.113524272205026591e+03,9.506147968337012571e+03,4.344769886953232344e+03,9.446745872497558594e+00,2.294756323099136353e-01,-2.294756323099136353e-01,1.010000000000000000e+02
3.354418279149726004e+03,3.380489743878742047e+03,4.730018181840610850e+03,5.554820492889384695e+03,2.971474949324929185e+03,3.125267095148222324e+03,9.402608885820009164e+03,4.321684517109743865e+03,9.446745872497558594e+00,2.294756323099136353e-01,-2.294756323099136353e-01,1.020000000000000000e+02
3.302393370214264451e+03,3.320992670722587718e+03,4.658104742512892699e+03,5.614807557981991522e+03,2.934913689831356351e+03,3.073021475298186488e+03,9.826302087446183577e+03,4.217617973362531302e+03,9.446745872497558594e+00,2.294756323099136353e-01,-2.294756323099136353e-01,1.030000000000000000e+02
3.272814558286615920e+03,3.286176937346032446e+03,4.605802034009175259e+03,5.621544092861303398e+03,2.907860575234371481e+03,3.040981648015789233e+03,1.043853915997661716e+04,4.170739325354687935e+03,9.484992027282714844e+00,1.912296712398529053e-01,-1.912296712398529053e-01,1.040000000000000000e+02
3.312649709044138945e+03,3.332579105641867045e+03,4.635026628572925802e+03,5.546370125222237220e+03,2.935641704965582903e+03,3.085731203614966034e+03,1.062826907880221552e+04,4.238580016739947496e+03,9.484992027282714844e+00,1.912296712398529053e-01,-1.912296712398529053e-01,1.050000000000000000e+02
3.371808240988799753e+03,3.402614637584519187e+03,4.694532511805654394e+03,5.472996007153235041e+03,2.986616267796276588e+03,3.157210617796296901e+03,1.037862062991480161e+04,4.319046518993008249e+03,9.484992027282714844e+00,1.912296712398529053e-01,-1.912296712398529053e-01,1.060000000000000000e+02
3.374082958079827222e+03,3.403570768922518255e+03,4.691270457548765989e+03,5.480858715129109441e+03,2.996607632725960229e+03,3.167023739069583371e+03,1.020752616067759664e+04,4.292137580541661919e+03,9.484992027282714844e+00,1.912296712398529053e-01,-1.912296712398529053e-01,1.070000000000000000e+02
3.321144081977005044e+03,3.336885582595583401e+03,4.618281288281155867e+03,5.535117919023190552e+03,2.956969667020598536e+03,3.110428781424444423e+03,1.031847131105048356e+04,4.184742178330901879e+03,9.484992027282714844e+00,1.912296712398529053e-01,-1.912296712398529053e-01,1.080000000000000000e+02
3.289079835896273835e+03,3.297096929508735684e+03,4.563060914682884686e+03,5.535352374331616375e+03,2.926168618578654787e+03,3.072817857653916690e+03,1.038357686098446902e+04,4.132818015685889804e+03,9.484992027282714844e+00,1.912296712398529053e-01,-1.912296712398529053e-01,1.090000000000000000e+02
3.324992050604126689e+03,3.340629826227414014e+03,4.586625331395540343e+03,5.454358326029883756e+03,2.949987318427930404e+03,3.110987937166122265e+03,1.018814103362529568e+04,4.194748285884348661e+03,9.484992027282714844e+00,1.912296712398529053e-01,-1.912296712398529053e-01,1.100000000000000000e+02
3.383364476483631279e+03,3.407616074367310830e+03,4.639941127930172115e+03,5.375096058274244569e+03,2.998448080016780750e+03,3.174137601484138031e+03,9.952359150142019644e+03,4.271185278546553491e+03,9.484992027282714844e+00,1.912296712398529053e-01,-1.912296712398529053e-01,1.110000000000000000e+02
3.387405006571146259e+03,3.405982638481037156e+03,4.631600347045391572e+03,5.376018296834993635e+03,3.005862736238995694e+03,3.174777792314751878e+03,9.915085375162048877e+03,4.241117641116049526e+03,9.484992027282714844e+00,1.912296712398529053e-01,-1.912296712398529053e-01,1.120000000000000000e+02
3.333273888057169188e+03,3.338964809497804254e+03,4.553652108464833873e+03,5.423535683527241417e+03,2.961404686990953451e+03,3.110477599036760694e+03,9.994918914259906160e+03,4.128816620536252231e+03,9.484992027282714844e+00,1.912296712398529053e-01,-1.912296712398529053e-01,1.130000000000000000e+02
3.295514354049584199e+03,3.298200195903793428e+03,4.493018353967897383e+03,5.418828105917036737e+03,2.925905562555051802e+03,3.067108690777501124e+03,9.979688847008528683e+03,4.071661778779118777e+03,9.484992027282714844e+00,1.912296712398529053e-01,-1.912296712398529053e-01,1.140000000000000000e+02
3.324666489072520108e+03,3.335535099321354210e+03,4.512381582547571270e+03,5.333579605299397372e+03,2.948849587993300702e+03,3.100291171445343025e+03,9.814151560401169263e+03,4.130896611507680973e+03,9.484992027282714844e+00,1.912296712398529053e-01,-1.912296712398529053e-01,1.150000000000000000e+02
3.377295469375855191e+03,3.393117851390261421e+03,4.563732172026648186e+03,5.248604890628238536e+03,2.998974854733157827e+03,3.159400097788584389e+03,9.622838033128440657e+03,4.206198971579473437e+03,9.484992027282714844e+00,1.912296712398529053e-01,-1.912296712398529053e-01,1.160000000000000000e+02
3.376166049820968965e+03,3.385009237347802355e+03,4.554182015098298507e+03,5.243092544362591070e+03,3.006831622328119465e+03,3.157665393222174316e+03,9.552200989016509993e+03,4.174360043839644277e+03,9.484992027282714844e+00,1.912296712398529053e-01,-1.912296712398529053e-01,1.170000000000000000e+02
3.317519533569035957e+03,3.314903652317605065e+03,4.474452124385716161e+03,5.286357463460410145e+03,2.961496241836258378e+03,3.091161993039114350e+03,9.603749851823475183e+03,4.060400395966401447e+03,9.484992027282714844e+00,1.912296712398529053e-01,-1.912296712398529053e-01,1.180000000000000000e+02
3.276026592020834414e+03,3.270076199125589937e+03,4.412282548467230299e+03,5.280409491063401219e+03,2.925428117533148452e+03,3.043950612832331899e+03,9.614326333407512720e+03,4.002382674213979044e+03,9.484992027282714844e+00,1.912296712398529053e-01,-1.912296712398529053e-01,1.190000000000000000e+02
3.301262627307999082e+03,3.302182819885973004e+03,4.431039543242709442e+03,5.194926886068578824e+03,2.946474096268867015e+03,3.072849251823980012e+03,9.460096320286331320e+03,4.059347171028463890e+03,9.484992027282714844e+00,1.912296712398529053e-01,-1.912296712398529053e-01,1.200000000000000000e+02
3.349836956217033730e+03,3.356820976284515382e+03,4.481516424317994279e+03,5.109174432556830652e+03,2.991330160769190570e+03,3.129509881556769415e+03,9.244871138586560846e+03,4.130174776073341491e+03,9.484992027282714844e+00,1.912296712398529053e-01,-1.912296712398529053e-01,1.210000000000000000e+02
3.345998682082730284e+03,3.347569272340323096e+03,4.470175651647045925e+03,5.102576302770572511e+03,2.993054104956923766e+03,3.127147043994218620e+03,9.167315812328317406e+03,4.094944075373671694e+03,9.484992027282714844e+00,1.912296712398529053e-01,-1.912296712398529053e-01,1.220000000000000000e+02
3.286191389681764576e+03,3.275054833061263707e+03,4.389124678844854316e+03,5.144601202076211848e+03,2.944087924225589177e+03,3.060848941067369651e+03,9.231885394213571999e+03,3.980836119894388503e+03,9.484992027282714844e+00,1.912296712398529053e-01,-1.912296712398529053e-01,1.230000000000000000e+02
3.243758401334452628e+03,3.227477407766188662e+03,4.326317975453317558e+03,5.137048958853104523e+03,2.905319465847563606e+03,3.015062840330785093e+03,9.239829126217260637e+03,3.923320823695329636e+03,9.484992027282714844e+00,1.912296712398529053e-01,-1.912296712398529053e-01,1.240000000000000000e+02
3.267487691137184356e+03,3.259196427385711559e+03,4.342555576810209459e+03,5.050754407264618749e+03,2.921539203922805882e+03,3.046851101117148119e+03,9.075592480483021063e+03,3.978593035524497282e+03,9.523238182067871094e+00,1.912296712398529053e-01,-1.912296712398529053e-01,1.250000000000000000e+02
3.313491842847275166e+03,3.314540865340333767e+03,4.387546596275579759e+03,4.966378259504921516e+03,2.961061453848612473e+03,3.106118444246297258e+03,8.866033979879706749e+03,4.046375054071917930e+03,9.523238182067871094e+00,1.912296712398529053e-01,-1.912296712398529053e-01,1.260000000000000000e+02
3.305389274923919402e+03,3.304641465593652356e+03,4.370596361892450659e+03,4.961740593826935765e+03,2.960280552137687664e+03,3.103929965907978840e+03,8.796918167426641958e+03,4.008244500424806120e+03,9.523238182067871094e+00,1.912296712398529053e-01,-1.912296712398529053e-01,1.270000000000000000e+02
3.240740635098430630e+03,3.231229954997078039e+03,4.285842472558922054e+03,5.002868888660551420e+03,2.910544157418159557e+03,3.034860686890596753e+03,8.857334384438232519e+03,3.890538405336286360e+03,9.523238182067871094e+00,1.912296712398529053e-01,-1.912296712398529053e-01,1.280000000000000000e+02
3.195265180790965587e+03,3.183988574744887046e+03,4.219149837884851877e+03,4.991125674799517583e+03,2.869478171320162801e+03,2.984151598091648339e+03,8.859268317931604543e+03,3.827935772089156217e+03,9.523238182067871094e+00,1.912296712398529053e-01,-1.912296712398529053e-01,1.290000000000000000e+02
3.217909463689381482e+03,3.215545423115046560e+03,4.229641413638596532e+03,4.900178875040361163e+03,2.882100068481987364e+03,3.010043873901571715e+03,8.695938996934261013e+03,3.878070924879561971e+03,9.523238182067871094e+00,1.912296712398529053e-01,-1.912296712398529053e-01,1.300000000000000000e+02
3.263178892438320418e+03,3.268764373564168636e+03,4.269534994461358110e+03,4.812071919267506019e+03,2.918934891213515584e+03,3.063937058414391686e+03,8.486727152472220041e+03,3.942230300186215572e+03,9.523238182067871094e+00,1.912296712398529053e-01,-1.912296712398529053e-01,1.310000000000000000e+02
3.254645213134589994e+03,3.256119070399556676e+03,4.250886733073784853e+03,4.803572636315637283e+03,2.916155421731614297e+03,3.058251403332074915e+03,8.413566217867020896e+03,3.901849238475962920e+03,9.523238182067871094e+00,1.912296712398529053e-01,-1.912296712398529053e-01,1.320000000000000000e+02
3.190052933558439690e+03,3.180100988595765557e+03,4.166916770885322876e+03,4.841055092624623285e+03,2.863676910518223849e+03,2.987380147209197276e+03,8.471851671579835966e+03,3.782711104587757745e+03,9.523238182067871094e+00,1.912296712398529053e-01,-1.912296712398529053e-01,1.330000000000000000e+02
3.142856340511277267e+03,3.129301892874803343e+03,4.101442603466071887e+03,4.827907462879135892e+03,2.819527789511321316e+03,2.934351288621087406e+03,8.474888330694700926e+03,3.719373575815817276e+03,9.523238182067871094e+00,1.912296712398529053e-01,-1.912296712398529053e-01,1.340000000000000000e+02
3.160775285302588600e+03,3.156888508857244688e+03,4.113116744184457275e+03,4.737541876009348016e+03,2.829766706814829377e+03,2.955396555502263254e+03,8.312412162651862673e+03,3.768887353442459244e+03,9.523238182067871094e+00,1.912296712398529053e-01,-1.912296712398529053e-01,1.350000000000000000e+02
3.201353772506610312e+03,3.208183523516427613e+03,4.153586875058657824e+03,4.649541445743943768e+03,2.864853565808380154e+03,3.003099331223087574e+03,8.102135535394559156e+03,3.831930798003237214e+03,9.523238182067871094e+00,1.912296712398529053e-01,-1.912296712398529053e-01,1.360000000000000000e+02
3.190598131171062505e+03,3.196191271013148253e+03,4.133485995740371436e+03,4.640183250727827726e+03,2.860907123600135492e+03,2.993342314217644343e+03,8.026767443533575715e+03,3.790709374316181311e+03,9.523238182067871094e+00,1.912296712398529053e-01,-1.912296712398529053e-01,1.370000000000000000e+02
3.124021136671751719e+03,3.121204646018590211e+03,4.046077700184973764e+03,4.677307205648429772e+03,2.808203895582700170e+03,2.921824904030108428e+03,8.081756070083718441e+03,3.672034136522548124e+03,9.523238182067871094e+00,1.912296712398529053e-01,-1.912296712398529053e-01,1.380000000000000000e+02
3.073226833688958322e+03,3.069511516299221057e+03,3.976998077183870009e+03,4.663982973639597731e+03,2.764361753891780609e+03,2.869373016743589233e+03,8.082240693196298707e+03,3.609536375384450366e+03,9.523238182067871094e+00,1.912296712398529053e-01,-1.912296712398529053e-01,1.390000000000000000e+02
3.088429755831011789e+03,3.093075411413421079e+03,3.986135207263747361e+03,4.571875720889973309e+03,2.774772969581999860e+03,2.890089845578713266e+03,7.919132376880153970e+03,3.658416847708225305e+03,9.523238182067871094e+00,1.912296712398529053e-01,-1.912296712398529053e-01,1.400000000000000000e+02
3.129037155168857225e+03,3.137308320192047177e+03,4.025322857110496443e+03,4.480784838034046516e+03,2.809912800344752213e+03,2.936528836956591022e+03,7.710070181232345021e+03,3.719370591727956707e+03,9.523238182067871094e+00,1.912296712398529053e-01,-1.912296712398529053e-01,1.410000000000000000e+02
3.119158606042277370e+03,3.117430659577803453e+03,4.005408153301501443e+03,4.468534032567620670e+03,2.805347899112121922e+03,2.924505544269773054e+03,7.636549991158877674e+03,3.675973153115295645e+03,9.523238182067871094e+00,1.912296712398529053e-01,-1.912296712398529053e-01,1.420000000000000000e+02
3.053589724442092120e+03,3.036886909810339603e+03,3.919277329083376571e+03,4.502958199008933661e+03,2.750068836120625747e+03,2.848961300578492683e+03,7.692740495306799858e+03,3.554976973880764490e+03,9.523238182067871094e+00,1.912296712398529053e-01,-1.912296712398529053e-01,1.430000000000000000e+02
3.005877872543625017e+03,2.982888614869299090e+03,3.850946930899916879e+03,4.486432848937648487e+03,2.702152589084751526e+03,2.791635162215398850e+03,7.693658439496516621e+03,3.488900959228245028e+03,9.523238182067871094e+00,1.912296712398529053e-01,-1.912296712398529053e-01,1.440000000000000000e+02
3.024880783931336737e+03,3.005757495059594930e+03,3.859169782954978473e+03,4.391476277153742558e+03,2.709250463660129753e+03,2.809154222657256469e+03,7.530938078295670493e+03,3.533746140848890263e+03,9.523238182067871094e+00,1.912296712398529053e-01,-1.912296712398529053e-01,1.450000000000000000e+02
3.065091227433478707e+03,3.049597679582133878e+03,3.896519440960959400e+03,4.299088918111518069e+03,2.742770537024146506e+03,2.855439561661241896e+03,7.322466049084465340e+03,3.592774656165131091e+03,9.523238182067871094e+00,1.912296712398529053e-01,-1.912296712398529053e-01,1.460000000000000000e+02
3.050089856158818748e+03,3.029902127616232974e+03,3.875147839491022751e+03,4.286901743499995064e+03,2.737609545566754605e+03,2.846205314944190832e+03,7.249510194985321505e+03,3.550458260946704286e+03,9.523238182067871094e+00,1.912296712398529053e-01,-1.912296712398529053e-01,1.470000000000000000e+02
2.979820267011414671e+03,2.950429252514970358e+03,3.788261439548415638e+03,4.322385217045248282e+03,2.682974211954740895e+03,2.776092325527735738e+03,7.306767778643321435e+03,3.431886853228312248e+03,9.523238182067871094e+00,1.912296712398529053e-01,-1.912296712398529053e-01,1.480000000000000000e+02
2.930595989704839667e+03,2.897871112029354663e+03,3.719534716820146059e+03,4.308300218618785038e+03,2.637301206642248872e+03,2.725157932685070591e+03,7.310346492157901594e+03,3.368033201907538569e+03,9.523238182067871094e+00,1.912296712398529053e-01,-1.912296712398529053e-01,1.490000000000000000e+02
2.948919548264731930e+03,2.922046945858145591e+03,3.727441187320180688e+03,4.216733225485738330e+03,2.646403393527728440e+03,2.746385921813751338e+03,7.151669787034241381e+03,3.414553558642261578e+03,9.523238182067871094e+00,2.294756323099136353e-01,-3.442134261131286621e-01,1.500000000000000000e+02
2.987596392616158028e+03,2.967051131876682120e+03,3.764256424177500776e+03,4.126926493180058060e+03,2.679594672429278035e+03,2.791565870325132892e+03,6.946703630041001816e+03,3.473860840966334763e+03,9.523238182067871094e+00,2.294756323099136353e-01,-3.442134261131286621e-01,1.510000000000000000e+02
2.971252006311559853e+03,2.948194068722074007e+03,3.741821336537724164e+03,4.115179242153722043e+03,2.672459330614036844e+03,2.777991896088327849e+03,6.875266912420465815e+03,3.429105205092740107e+03,9.523238182067871094e+00,2.294756323099136353e-01,-3.442134261131286621e-01,1.520000000000000000e+02
2.899689420887731558e+03,2.868455649528307731e+03,3.653369069737267182e+03,4.148745588783222047e+03,2.615789579770373166e+03,2.702422057306244824e+03,6.932578730544175414e+03,3.305802169863254676e+03,9.523238182067871094e+00,2.294756323099136353e-01,-3.442134261131286621e-01,1.530000000000000000e+02
2.847456311920942881e+03,2.813913422302451181e+03,3.582796864753062891e+03,4.130743467432092984e+03,2.567691826336096710e+03,2.645219179970679761e+03,6.935921599636045357e+03,3.237103601074488324e+03,9.523238182067871094e+00,2.294756323099136353e-01,-3.442134261131286621e-01,1.540000000000000000e+02
2.861233538602056797e+03,2.834968159330901472e+03,3.588580210296961923e+03,4.034612583851499039e+03,2.573420939370600536e+03,2.660410964417237665e+03,6.776858767410396467e+03,3.280343502166076632e+03,9.523238182067871094e+00,2.294756323099136353e-01,-3.442134261131286621e-01,1.550000000000000000e+02
2.896161237775050267e+03,2.877243681194239798e+03,3.623114304527025524e+03,3.941694090369188416e+03,2.603500123956740936e+03,2.702456116676799866e+03,6.570957911312676515e+03,3.338555333198159587e+03,9.523238182067871094e+00,2.294756323099136353e-01,-3.442134261131286621e-01,1.560000000000000000e+02
2.878337400478787913e+03,2.856968176778489578e+03,3.598978018830528526e+03,3.928865507365510439e+03,2.594547730286020851e+03,2.688967589037843027e+03,6.498254356363426268e+03,3.295102912592113626e+03,9.523238182067871094e+00,2.294756323099136353e-01,-3.442134261131286621e-01,1.570000000000000000e+02
2.806887962352030627e+03,2.776456907650568610e+03,3.509950803408300999e+03,3.962206029848878188e+03,2.536702972525415134e+03,2.613750250054340540e+03,6.554645968424625607e+03,3.174570627940327540e+03,9.523238182067871094e+00,2.294756323099136353e-01,-3.442134261131286621e-01,1.580000000000000000e+02
2.754325515859361076e+03,2.720450759073577501e+03,3.439004169977524725e+03,3.944897050223218230e+03,2.487421361298961529e+03,2.555976526811087751e+03,6.558006719521185005e+03,3.107905471201466298e+03,9.523238182067871094e+00,2.294756323099136353e-01,-3.442134261131286621e-01,1.590000000000000000e+02
2.765721725004949803e+03,2.738862914427441865e+03,3.443095417887147505e+03,3.852020528074721824e+03,2.492126243226070073e+03,2.571937718774826863e+03,6.400392120516633440e+03,3.151316836662937021e+03,9.523238182067871094e+00,2.294756323099136353e-01,-3.442134261131286621e-01,1.600000000000000000e+02
2.797109702352273416e+03,2.777942208925752311e+03,3.474968878759582822e+03,3.764393535996642640e+03,2.521247702063330507e+03,2.616741506935933103e+03,6.197325174192079430e+03,3.209008752101352002e+03,9.523238182067871094e+00,2.294756323099136353e-01,-3.442134261131286621e-01,1.610000000000000000e+02
2.777079375277272447e+03,2.754907612914338642e+03,3.449363187045403720e+03,3.755687275165018491e+03,2.511382769134651426e+03,2.605048179121725298e+03,6.127729333371495159e+03,3.165667139225765368e+03,9.523238182067871094e+00,2.294756323099136353e-01,-3.442134261131286621e-01,1.620000000000000000e+02
2.705189187438493718e+03,2.673207099118392762e+03,3.361094364679883256e+03,3.790550634626937608e+03,2.453200821878444003e+03,2.528824856580945379e+03,6.186346191107300911e+03,3.045532047420551862e+03,9.523238182067871094e+00,2.294756323099136353e-01,-3.442134261131286621e-01,1.630000000000000000e+02
2.652472922171623395e+03,2.618814242517660659e+03,3.292263745167023899e+03,3.773649662324313340e+03,2.403625928650663809e+03,2.468421761172041442e+03,6.191321457045467469e+03,2.978341391437706079e+03,9.523238182067871094e+00,2.294756323099136353e-01,-3.442134261131286621e-01,1.640000000000000000e+02
2.664617603214458541e+03,2.641587493297755373e+03,3.299593414642389689e+03,3.680252345297283227e+03,2.406707738789801624e+03,2.480663119829635434e+03,6.035672381207257786e+03,3.019482610171687611e+03,9.523238182067871094e+00,2.294756323099136353e-01,-3.442134261131286621e-01,1.650000000000000000e+02
2.699503550852855369e+03,2.685060290171893485e+03,3.336594165952523326e+03,3.589461826222985110e+03,2.433884753235246535e+03,2.520480696646227443e+03,5.834738241711840601e+03,3.073528816661051678e+03,9.523238182067871094e+00,2.294756323099136353e-01,-3.442134261131286621e-01,1.660000000000000000e+02
2.683759639675296057e+03,2.662841301780769300e+03,3.316736530574712560e+03,3.576196824010261480e+03,2.424559806801281411e+03,2.505430746908392393e+03,5.766512132553671108e+03,3.027384237378701073e+03,9.523238182067871094e+00,2.294756323099136353e-01,-3.442134261131286621e-01,1.670000000000000000e+02
2.612809308389726539e+03,2.577506710030174418e+03,3.231315110978850043e+03,3.609523960861467458e+03,2.368992067776366639e+03,2.430985656465817556e+03,5.826037132498426217e+03,2.907778170755980227e+03,9.523238182067871094e+00,2.294756323099136353e-01,-3.442134261131286621e-01,1.680000000000000000e+02
2.558217628868370412e+03,2.517542872361895206e+03,3.160702557602705838e+03,3.595216184044914371e+03,2.320436449290083146e+03,2.375315112849479192e+03,5.832957015799444889e+03,2.843935068016048717e+03,9.523238182067871094e+00,2.294756323099136353e-01,-3.442134261131286621e-01,1.690000000000000000e+02
2.569859451218862887e+03,2.535891027029074849e+03,3.163282820635312419e+03,3.504497948215709130e+03,2.321909298808701806e+03,2.389831452208813971e+03,5.680789764054338775e+03,2.888107213689397668e+03,9.523238182067871094e+00,2.294756323099136353e-01,-3.442134261131286621e-01,1.700000000000000000e+02
2.606040028823883404e+03,2.577741378887582414e+03,3.194860117749224628e+03,3.413510394275370800e+03,2.347559741385532561e+03,2.428665295929423337e+03,5.483413227763820032e+03,2.943250336396431067e+03,9.523238182067871094e+00,2.294756323099136353e-01,-3.442134261131286621e-01,1.710000000000000000e+02
2.590300525097494756e+03,2.556996179026304617e+03,3.170481312727954901e+03,3.398585235094962627e+03,2.337957521100922804e+03,2.412211231178254820e+03,5.417053535482135885e+03,2.897012264231421796e+03,9.523238182067871094e+00,2.294756323099136353e-01,-3.442134261131286621e-01,1.720000000000000000e+02
2.518270711666584248e+03,2.475041737115895103e+03,3.083250824477861897e+03,3.430513126183621353e+03,2.281821828236380952e+03,2.335871614893303558e+03,5.476696242000956772e+03,2.776144134826543905e+03,9.523238182067871094e+00,2.294756323099136353e-01,-3.442134261131286621e-01,1.730000000000000000e+02
2.464473931604053178e+03,2.417917330585394666e+03,3.014326091704163446e+03,3.414806299254290025e+03,2.232546801959625554e+03,2.276427004075814693e+03,5.483689660174477467e+03,2.709402595386539360e+03,9.523238182067871094e+00,2.294756323099136353e-01,-3.442134261131286621e-01,1.740000000000000000e+02
2.477844004673689597e+03,2.437037353630065809e+03,3.020036661068013927e+03,3.323287872709675412e+03,2.235173142483259653e+03,2.287892135196807430e+03,5.333414208902162500e+03,2.751174928627605823e+03,9.523238182067871094e+00,2.294756323099136353e-01,-3.442134261131286621e-01,1.750000000000000000e+02
2.512847588306404759e+03,2.478435403645040878e+03,3.053683417840809852e+03,3.233821603889203743e+03,2.263264675345204523e+03,2.327414164681993043e+03,5.140282051522875008e+03,2.807323917007174714e+03,9.523238182067871094e+00,2.294756323099136353e-01,-3.442134261131286621e-01,1.760000000000000000e+02
2.493528893474811412e+03,2.457441555974187850e+03,3.030367942898416459e+03,3.222073405200065281e+03,2.254460649223357450e+03,2.312961569819503893e+03,5.079336306343288015e+03,2.764380562092715991e+03,9.523238182067871094e+00,3.059675097465515137e-01,-2.677215635776519775e-01,1.770000000000000000e+02
2.419791329840975777e+03,2.375430199441300829e+03,2.944038533606416422e+03,3.256179281153314150e+03,2.197087692871084528e+03,2.236424556880076580e+03,5.143362081799203224e+03,2.645488229419330310e+03,9.523238182067871094e+00,3.059675097465515137e-01,-2.677215635776519775e-01,1.780000000000000000e+02
2.366568870825480190e+03,2.317618913356345729e+03,2.874986096611495213e+03,3.241034877652405157e+03,2.146769724956102436e+03,2.176296560303223487e+03,5.152120578355957150e+03,2.578851589198899546e+03,9.523238182067871094e+00,3.059675097465515137e-01,-2.677215635776519775e-01,1.790000000000000000e+02
2.378807172934361006e+03,2.335187771926760433e+03,2.878774720781428641e+03,3.149877275707476656e+03,2.148707708098081184e+03,2.189392614106077872e+03,5.001498608087293178e+03,2.620879943593165081e+03,9.523238182067871094e+00,3.059675097465515137e-01,-2.677215635776519775e-01,1.800000000000000000e+02
2.409838738897216899e+03,2.374889703973437463e+03,2.909959101015883334e+03,3.060846082050842597e+03,2.174308624223407605e+03,2.230926225675873866e+03,4.807959637079204185e+03,2.677480344400414651e+03,9.523238182067871094e+00,3.059675097465515137e-01,-2.677215635776519775e-01,1.810000000000000000e+02
2.387057087673493243e+03,2.353516141097260970e+03,2.884915342987053918e+03,3.049021850326648746e+03,2.161433741039112647e+03,2.216318852659438107e+03,4.747909284277633560e+03,2.633949278909388340e+03,9.523238182067871094e+00,3.059675097465515137e-01,-2.677215635776519775e-01,1.820000000000000000e+02
2.312189845599265482e+03,2.273551519359012673e+03,2.797332921976060334e+03,3.083334260351527519e+03,2.101688494698018530e+03,2.139369210078220021e+03,4.814056335774969739e+03,2.514484248051402574e+03,9.523238182067871094e+00,3.059675097465515137e-01,-2.677215635776519775e-01,1.830000000000000000e+02
2.258694268595055291e+03,2.219387557769841806e+03,2.727380435888313968e+03,3.069862193777570155e+03,2.051993522046494036e+03,2.080426378062339154e+03,4.825955750882191751e+03,2.448669869708034184e+03,9.523238182067871094e+00,3.059675097465515137e-01,-2.677215635776519775e-01,1.840000000000000000e+02
2.271588146535507803e+03,2.239919217790031780e+03,2.731410615284190044e+03,2.981434846797059436e+03,2.054813571260050139e+03,2.093509814956144055e+03,4.679398537235440926e+03,2.490987213750085630e+03,9.523238182067871094e+00,3.059675097465515137e-01,-2.677215635776519775e-01,1.850000000000000000e+02
2.306404518412946800e+03,2.280336029505343959e+03,2.764088937550180162e+03,2.894978046962057761e+03,2.079297469884530074e+03,2.131588025296194246e+03,4.489661545421259689e+03,2.545238349813412242e+03,9.523238182067871094e+00,3.059675097465515137e-01,-2.677215635776519775e-01,1.860000000000000000e+02
2.289414710273096262e+03,2.257182624103631497e+03,2.740996595281536884e+03,2.884867176927841683e+03,2.064898763149214574e+03,2.113551791622621295e+03,4.431692683712832149e+03,2.499188843621982414e+03,9.523238182067871094e+00,3.059675097465515137e-01,-2.677215635776519775e-01,1.870000000000000000e+02
2.217425111557574837e+03,2.173198528838357106e+03,2.655396713704974445e+03,2.919666829664670331e+03,2.005635095753906626e+03,2.037251442812038022e+03,4.498862341773525259e+03,2.380779066120289826e+03,9.523238182067871094e+00,3.059675097465515137e-01,-2.677215635776519775e-01,1.880000000000000000e+02
2.161680984698257362e+03,2.113823711941200600e+03,2.587243106210065889e+03,2.905754711437008154e+03,1.958043744725335728e+03,1.981533794503544868e+03,4.512926571511086877e+03,2.318488520388939378e+03,9.523238182067871094e+00,3.059675097465515137e-01,-2.677215635776519775e-01,1.890000000000000000e+02
2.169950522990105583e+03,2.130098781188355133e+03,2.592292370527886760e+03,2.817411844259488589e+03,1.962800157855110683e+03,1.996863115929371361e+03,4.370269286222155642e+03,2.362781687059838077e+03,9.523238182067871094e+00,3.059675097465515137e-01,-2.677215635776519775e-01,1.900000000000000000e+02
2.200512609059599527e+03,2.168999936300964237e+03,2.625200936707234177e+03,2.732601755306278392e+03,1.988359421729830956e+03,2.036074462334976943e+03,4.184582056252738766e+03,2.416764489000691356e+03,9.523238182067871094e+00,3.059675097465515137e-01,-2.677215635776519775e-01,1.910000000000000000e+02
2.179859958046824431e+03,2.147160276884409541e+03,2.602475898339315336e+03,2.724839316510679510e+03,1.974048727094575042e+03,2.018995911138994870e+03,4.129443463017500108e+03,2.370525442869521157e+03,9.523238182067871094e+00,3.059675097465515137e-01,-2.677215635776519775e-01,1.920000000000000000e+02
2.105296826745666294e+03,2.065919175698692015e+03,2.517811522851519385e+03,2.761372111530701659e+03,1.913753026517792478e+03,1.941886808689127065e+03,4.198260910142511420e+03,2.252488723232600933e+03,9.523238182067871094e+00,3.059675097465515137e-01,-2.677215635776519775e-01,1.930000000000000000e+02
2.049391905644124563e+03,2.008523999314365938e+03,2.450721299418070430e+03,2.748468484857793101e+03,1.865100748867327184e+03,1.882859756604234462e+03,4.213567291394237145e+03,2.189799157797727730e+03,9.523238182067871094e+00,3.059675097465515137e-01,-2.677215635776519775e-01,1.940000000000000000e+02
2.059305247941994821e+03,2.024227802914217591e+03,2.456668333457039353e+03,2.660500409965723065e+03,1.870486872740613308e+03,1.895796017808684155e+03,4.072708258949847732e+03,2.233501296833545894e+03,9.523238182067871094e+00,3.059675097465515137e-01,-2.677215635776519775e-01,1.950000000000000000e+02
2.091458397959740068e+03,2.060276767659610414e+03,2.489943722500374861e+03,2.574767948560238892e+03,1.898284812062495348e+03,1.936669361309175656e+03,3.889750589837325606e+03,2.288730599149596401e+03,9.523238182067871094e+00,3.059675097465515137e-01,-2.677215635776519775e-01,1.960000000000000000e+02
2.072576221598663778e+03,2.035251074188842267e+03,2.466182612563725343e+03,2.564825462042775143e+03,1.886357112957532081e+03,1.923700066348111250e+03,3.837217564064831095e+03,2.245466719749336335e+03,9.523238182067871094e+00,3.059675097465515137e-01,-2.677215635776519775e-01,1.970000000000000000e+02
2.001221181822046674e+03,1.951844002555345469e+03,2.379201701632034656e+03,2.599635871854594370e+03,1.828053631881298770e+03,1.850063479211340109e+03,3.907298197203424934e+03,2.130095547645292299e+03,9.523238182067871094e+00,3.059675097465515137e-01,-2.677215635776519775e-01,1.980000000000000000e+02
1.948370266126571096e+03,1.893713336992622317e+03,2.310297872890779217e+03,2.587101991841186646e+03,1.780881637731745741e+03,1.793253132737967462e+03,3.923245123086928288e+03,2.068997707519748474e+03,9.523238182067871094e+00,3.059675097465515137e-01,-2.677215635776519775e-01,1.990000000000000000e+02
1.958052630763535944e+03,1.910913695380096215e+03,2.316192926635078948e+03,2.501393975181893438e+03,1.786318132747482196e+03,1.806960478909541962e+03,3.784128133749562949e+03,2.114014761194302991e+03,9.523238182067871094e+00,3.059675097465515137e-01,-2.677215635776519775e-01,2.000000000000000000e+02
1.987424662901292777e+03,1.951159453193165973e+03,2.350773227287083955e+03,2.418631807889080847e+03,1.812857430898526673e+03,1.845878518845056533e+03,3.604223114813459688e+03,2.170352014015630175e+03,9.523238182067871094e+00,3.059675097465515137e-01,-2.677215635776519775e-01,2.010000000000000000e+02
1.968068062869603182e+03,1.931760512248366012e+03,2.329218974329925004e+03,2.411816462035872974e+03,1.800135675051757971e+03,1.828940790953723081e+03,3.555148915220628624e+03,2.127049258694123182e+03,9.523238182067871094e+00,3.059675097465515137e-01,-2.677215635776519775e-01,2.020000000000000000e+02
1.901208926500781217e+03,1.853855946917813526e+03,2.245110919420003938e+03,2.449778519174019038e+03,1.741412665559598736e+03,1.752303828073728710e+03,3.629053439363807229e+03,2.010163694660911688e+03,9.523238182067871094e+00,3.059675097465515137e-01,-2.677215635776519775e-01,2.030000000000000000e+02
1.854820589006292721e+03,1.801032523806388781e+03,2.178326208272201711e+03,2.439821657603821677e+03,1.691686699121034053e+03,1.694321214653778497e+03,3.649480362482093369e+03,1.946820750138504991e+03,9.523238182067871094e+00,3.059675097465515137e-01,-2.677215635776519775e-01,2.040000000000000000e+02
1.868713980466316116e+03,1.823419539567058564e+03,2.184395566394875459e+03,2.355612256203517518e+03,1.692697129805656914e+03,1.707145753454619808e+03,3.514616025849529251e+03,1.990107730764322696e+03,9.523238182067871094e+00,3.059675097465515137e-01,-2.677215635776519775e-01,2.050000000000000000e+02
1.899708542651579137e+03,1.867561431455295860e+03,2.218939749224891330e+03,2.273771487567832992e+03,1.717243579993202729e+03,1.745870138234537535e+03,3.337696513848023642e+03,2.046674858131644896e+03,9.523238182067871094e+00,3.059675097465515137e-01,-2.677215635776519775e-01,2.060000000000000000e+02
1.881186841857516811e+03,1.849809846995537555e+03,2.199898111317024814e+03,2.268013050724082859e+03,1.706917081005801720e+03,1.731223973179382483e+03,3.290837729946576474e+03,2.006272401120211498e+03,9.523238182067871094e+00,3.059675097465515137e-01,-2.677215635776519775e-01,2.070000000000000000e+02
1.814331414625784419e+03,1.771589440717262733e+03,2.120420065250353673e+03,2.307026559347900729e+03,1.651677780024067488e+03,1.658146379997279382e+03,3.367424945545255468e+03,1.893670574086435408e+03,9.408499717712402344e+00,2.677215635776519775e-01,-2.294756323099136353e-01,2.080000000000000000e+02
1.766564395354331737e+03,1.716564279076347930e+03,2.057423726918580996e+03,2.297834369675671496e+03,1.603676678903793800e+03,1.602172877443831567e+03,3.391132128944354008e+03,1.833659954131308268e+03,9.408499717712402344e+00,2.677215635776519775e-01,-2.294756323099136353e-01,2.090000000000000000e+02
1.779529221968193724e+03,1.734328678704549247e+03,2.065181720949450664e+03,2.214475865372582575e+03,1.605997136011996645e+03,1.615904973900231653e+03,3.259134127888946750e+03,1.878527062895707559e+03,9.408499717712402344e+00,2.677215635776519775e-01,-2.294756323099136353e-01,2.100000000000000000e+02
1.811377467560265814e+03,1.772283799044427951e+03,2.100590783456019381e+03,2.133552668718777568e+03,1.632886196203588952e+03,1.656655532210236743e+03,3.083817814220043147e+03,1.935943016158453474e+03,9.408499717712402344e+00,2.677215635776519775e-01,-2.294756323099136353e-01,2.110000000000000000e+02
1.792641302829334563e+03,1.749514348806307680e+03,2.082731216313102777e+03,2.127817936713259769e+03,1.624425858342623542e+03,1.644519428744263223e+03,3.037499009240795203e+03,1.896217094475832710e+03,9.408499717712402344e+00,2.677215635776519775e-01,-2.294756323099136353e-01,2.120000000000000000e+02
1.721474813346671453e+03,1.669619887242983168e+03,2.004649780908926914e+03,2.165755176609359296e+03,1.569229957948345145e+03,1.572375746962674384e+03,3.114780012647414424e+03,1.783407164268238148e+03,9.408499717712402344e+00,2.677215635776519775e-01,-2.294756323099136353e-01,2.130000000000000000e+02
1.667802664786058358e+03,1.616138857805523458e+03,1.942933706265479032e+03,2.155750499967452470e+03,1.520512822671581489e+03,1.516125503728020249e+03,3.140768740054823866e+03,1.722017563195046932e+03,9.408499717712402344e+00,2.677215635776519775e-01,-2.294756323099136353e-01,2.140000000000000000e+02
1.678124502355697587e+03,1.637109769668551053e+03,1.951579227058997731e+03,2.072653314243356817e+03,1.522361423912436067e+03,1.529616636101390668e+03,3.013051118829076131e+03,1.765317543091181278e+03,9.408499717712402344e+00,2.677215635776519775e-01,-2.294756323099136353e-01,2.150000000000000000e+02
1.711122552334783904e+03,1.678380372303280410e+03,1.986781601449095888e+03,1.991897710527044637e+03,1.548449284137435370e+03,1.569589265732920239e+03,2.842781537267144358e+03,1.821997600892555056e+03,9.408499717712402344e+00,2.677215635776519775e-01,-2.294756323099136353e-01,2.160000000000000000e+02
1.694615588820411176e+03,1.658099850756080514e+03,1.967053790139705143e+03,1.985104827055646638e+03,1.538706866998162923e+03,1.555963564985048379e+03,2.800366408967080588e+03,1.782674817798695813e+03,9.408499717712402344e+00,2.677215635776519775e-01,-2.294756323099136353e-01,2.170000000000000000e+02
1.625672198691317135e+03,1.579891303222160104e+03,1.886169182897813698e+03,2.021789590543005033e+03,1.482948639237978568e+03,1.483781377147601006e+03,2.879765843571517507e+03,1.671559467592377132e+03,9.408499717712402344e+00,2.677215635776519775e-01,-2.294756323099136353e-01,2.180000000000000000e+02
1.574082520668413053e+03,1.528151368037040584e+03,1.822599672663729507e+03,2.012262866665626461e+03,1.435048510407683352e+03,1.430156772752077359e+03,2.907382016314921657e+03,1.613090259208466478e+03,9.408499717712402344e+00,2.677215635776519775e-01,-2.294756323099136353e-01,2.190000000000000000e+02
1.584842676032218833e+03,1.551497466993563648e+03,1.831598634092549446e+03,1.931596613759155844e+03,1.438072174475881411e+03,1.446827891956603253e+03,2.782244476134624165e+03,1.659528441857638200e+03,9.408499717712402344e+00,2.677215635776519775e-01,-2.294756323099136353e-01,2.200000000000000000e+02
1.616189653331281988e+03,1.595297459420843097e+03,1.868747517363156021e+03,1.853641936295824507e+03,1.464359593935289467e+03,1.488348003153849049e+03,2.615304316229372034e+03,1.718296348986900739e+03,9.408499717712402344e+00,2.677215635776519775e-01,-2.294756323099136353e-01,2.210000000000000000e+02
1.598224690696442622e+03,1.576930165167409768e+03,1.851332739403054802e+03,1.848790981095043207e+03,1.453735385213457221e+03,1.475172385317977614e+03,2.576153018877294016e+03,1.679932209295766597e+03,9.408499717712402344e+00,2.677215635776519775e-01,-2.294756323099136353e-01,2.220000000000000000e+02
1.529577854276999233e+03,1.499868059547517078e+03,1.773049520743075391e+03,1.886782071494343654e+03,1.396750212022580854e+03,1.403246023360211439e+03,2.659118971681662060e+03,1.569260895697919977e+03,9.408499717712402344e+00,2.677215635776519775e-01,-2.294756323099136353e-01,2.230000000000000000e+02
1.479017222167649606e+03,1.448676100321633385e+03,1.712501818548340225e+03,1.878501778012979457e+03,1.347404511810341319e+03,1.348800112536654524e+03,2.691115134592206232e+03,1.510402978176771285e+03,9.408499717712402344e+00,2.677215635776519775e-01,-2.294756323099136353e-01,2.240000000000000000e+02
1.490631619072453759e+03,1.472291401013838822e+03,1.723728927925427115e+03,1.799170125262396368e+03,1.348248557249636860e+03,1.363180665826399036e+03,2.570085530378566546e+03,1.555061568463763933e+03,9.408499717712402344e+00,2.677215635776519775e-01,-2.294756323099136353e-01,2.250000000000000000e+02
1.522850165312374429e+03,1.517030568162902682e+03,1.761395737263866522e+03,1.723135141769178290e+03,1.372278503386460670e+03,1.403018682120231233e+03,2.405758685763572430e+03,1.612024964613852717e+03,9.408499717712402344e+00,2.677215635776519775e-01,-2.294756323099136353e-01,2.260000000000000000e+02
1.505656425317577032e+03,1.500872796120601606e+03,1.744094600539481462e+03,1.721470741654510675e+03,1.361557524819795617e+03,1.390857719373799910e+03,2.368398911175996091e+03,1.574341830704158383e+03,9.408499717712402344e+00,2.677215635776519775e-01,-2.294756323099136353e-01,2.270000000000000000e+02
1.438099454406617951e+03,1.425727985198470833e+03,1.666857404803585496e+03,1.763022216487607238e+03,1.307672323000825600e+03,1.322040864185837563e+03,2.453473258897561664e+03,1.467222982416331206e+03,9.408499717712402344e+00,2.677215635776519775e-01,-2.294756323099136353e-01,2.280000000000000000e+02
1.390207195844351190e+03,1.373775787761233914e+03,1.607326955640431152e+03,1.756717485156046678e+03,1.262649818011200296e+03,1.271017140249393378e+03,2.487714380750883265e+03,1.412723650849605519e+03,9.523238182067871094e+00,2.677215635776519775e-01,-3.059675097465515137e-01,2.290000000000000000e+02
1.404922365765071845e+03,1.394239844652953707e+03,1.618583913382001811e+03,1.677812470502636643e+03,1.266664804720585380e+03,1.288718203811361491e+03,2.368969938582323721e+03,1.461122164941429901e+03,9.523238182067871094e+00,2.677215635776519775e-01,-3.059675097465515137e-01,2.300000000000000000e+02
1.437463825740719130e+03,1.436261814551552561e+03,1.656388050808232492e+03,1.602659270271009518e+03,1.292639018716378814e+03,1.331844904268832124e+03,2.207802079805999711e+03,1.521281331459390458e+03,9.523238182067871094e+00,2.677215635776519775e-01,-3.059675097465515137e-01,2.310000000000000000e+02
1.418471839805801210e+03,1.419372434188625448e+03,1.639917150011106060e+03,1.602692593992762340e+03,1.283339169482833313e+03,1.321628541288952420e+03,2.174062089495637338e+03,1.485573872625373951e+03,9.523238182067871094e+00,2.677215635776519775e-01,-3.059675097465515137e-01,2.320000000000000000e+02
1.351602130036535982e+03,1.344296238166670719e+03,1.562922758855509983e+03,1.645168276577543566e+03,1.230110558719539767e+03,1.252163190379836124e+03,2.261349795727069250e+03,1.378039715481688290e+03,9.523238182067871094e+00,2.677215635776519775e-01,-3.059675097465515137e-01,2.330000000000000000e+02
1.307510748917427918e+03,1.291430532273479002e+03,1.503016482034171986e+03,1.639014365739380082e+03,1.185540937147265140e+03,1.199180874275336009e+03,2.296354006743469654e+03,1.322090230753774449e+03,9.523238182067871094e+00,2.677215635776519775e-01,-3.059675097465515137e-01,2.340000000000000000e+02
1.324399189243200908e+03,1.309441405156029305e+03,1.515205135022018567e+03,1.561133006411532733e+03,1.191809531808832162e+03,1.216078906090209784e+03,2.179144285346814286e+03,1.371092455170447465e+03,9.523238182067871094e+00,2.677215635776519775e-01,-3.059675097465515137e-01,2.350000000000000000e+02
1.355510587851778837e+03,1.348511457557649010e+03,1.555452434917296159e+03,1.487757601735801472e+03,1.222131110005876963e+03,1.259927249758155995e+03,2.021107466036924961e+03,1.434232880077625850e+03,9.523238182067871094e+00,2.677215635776519775e-01,-3.059675097465515137e-01,2.360000000000000000e+02
1.334452916007339354e+03,1.330630335698591807e+03,1.541123665923151748e+03,1.488971452903653244e+03,1.216744634882825267e+03,1.250544760365455204e+03,1.990580323501458224e+03,1.401241252974018607e+03,9.523238182067871094e+00,2.677215635776519775e-01,-3.059675097465515137e-01,2.370000000000000000e+02
1.266007264578888226e+03,1.258298798854475081e+03,1.465816821011492721e+03,1.532847919050025666e+03,1.165175887890069134e+03,1.181805178819230605e+03,2.080383180374801668e+03,1.295067737088502327e+03,9.523238182067871094e+00,2.677215635776519775e-01,-3.059675097465515137e-01,2.380000000000000000e+02
1.219321965172975069e+03,1.210258458427008918e+03,1.408317868019798880e+03,1.530157605078938104e+03,1.120731709170321210e+03,1.130336704268388075e+03,2.118052866001647999e+03,1.240317222692615360e+03,9.523238182067871094e+00,2.677215635776519775e-01,-3.059675097465515137e-01,2.390000000000000000e+02
1.234785523831613318e+03,1.231458400857505694e+03,1.422703769819468562e+03,1.456944837920498685e+03,1.126337571544008370e+03,1.148759988819907448e+03,2.003799029859199436e+03,1.290041356759348673e+03,9.523238182067871094e+00,2.677215635776519775e-01,-3.059675097465515137e-01,2.400000000000000000e+02
1.269870733308013769e+03,1.270681874692262681e+03,1.463249655142738902e+03,1.386878125087734588e+03,1.154874051886288271e+03,1.192047601416761609e+03,1.847920454885976142e+03,1.351760478779625373e+03,9.523238182067871094e+00,2.677215635776519775e-01,-3.059675097465515137e-01,2.410000000000000000e+02
1.256074496095077848e+03,1.251486899028423522e+03,1.448386856624139000e+03,1.389280992450178928e+03,1.147331965126068098e+03,1.180136868748044435e+03,1.818265251369256475e+03,1.316423142160612770e+03,9.523238182067871094e+00,2.677215635776519775e-01,-3.059675097465515137e-01,2.420000000000000000e+02
1.191492057105967433e+03,1.177939361158478278e+03,1.373640236192439261e+03,1.433012590355116117e+03,1.095172251571290872e+03,1.109512550433979413e+03,1.908362466576275438e+03,1.210359227562091291e+03,9.523238182067871094e+00,2.677215635776519775e-01,-3.059675097465515137e-01,2.430000000000000000e+02
1.144184607209273054e+03,1.129679000386259759e+03,1.317130078507541839e+03,1.429081345360017622e+03,1.051911660860255324e+03,1.057979487772311586e+03,1.946796408963778958e+03,1.158195808179711094e+03,9.523238182067871094e+00,2.677215635776519775e-01,-3.059675097465515137e-01,2.440000000000000000e+02
1.159519579887071814e+03,1.152969766418625113e+03,1.331767263266731788e+03,1.353661293370953899e+03,1.058585634967514125e+03,1.076586240163562252e+03,1.834588103712140764e+03,1.209478325329970176e+03,9.523238182067871094e+00,2.677215635776519775e-01,-3.059675097465515137e-01,2.450000000000000000e+02
1.196841254287606716e+03,1.196697252185682373e+03,1.373242096669404418e+03,1.281473257057877163e+03,1.087104134026678366e+03,1.119457739983799911e+03,1.682107624529086934e+03,1.270562916119379224e+03,9.523238182067871094e+00,2.677215635776519775e-01,-3.059675097465515137e-01,2.460000000000000000e+02
1.184601148404830383e+03,1.181816396641714164e+03,1.361696683585351821e+03,1.283021211745368419e+03,1.079475501345211342e+03,1.107988218340156891e+03,1.656362193038843543e+03,1.235017495726092420e+03,9.523238182067871094e+00,2.677215635776519775e-01,-3.059675097465515137e-01,2.470000000000000000e+02
1.119990192593254505e+03,1.110024666785823683e+03,1.291630102094207359e+03,1.327568714758672286e+03,1.027863764758175421e+03,1.038951196283157515e+03,1.750167814744077987e+03,1.130283744632770322e+03,9.523238182067871094e+00,2.677215635776519775e-01,-3.059675097465515137e-01,2.480000000000000000e+02
1.074012767173742759e+03,1.061596029410423398e+03,1.239006543359769239e+03,1.325643301795775187e+03,9.849681792434539602e+02,9.873879769904515342e+02,1.792203546075479608e+03,1.078317813021962138e+03,9.523238182067871094e+00,2.677215635776519775e-01,-3.059675097465515137e-01,2.490000000000000000e+02
1.093141533711798729e+03,1.084177449509034886e+03,1.255844130585759558e+03,1.252179712175797249e+03,9.912693289803119114e+02,1.002606667685700813e+03,1.683424789294815128e+03,1.126922517448085273e+03,9.523238182067871094e+00,2.677215635776519775e-01,-3.059675097465515137e-01,2.500000000000000000e+02
1.134215047091456654e+03,1.126575302238786207e+03,1.297581583193888946e+03,1.181149882423325835e+03,1.019558428154739886e+03,1.041544834493286544e+03,1.533574820863988862e+03,1.184906840272993577e+03,9.523238182067871094e+00,2.677215635776519775e-01,-3.059675097465515137e-01,2.510000000000000000e+02
1.123902589749206527e+03,1.110307327356810674e+03,1.284061151089101259e+03,1.184282663347267771e+03,1.012565941577954618e+03,1.029722087194802043e+03,1.509679116938825246e+03,1.148800874600239695e+03,9.523238182067871094e+00,2.677215635776519775e-01,-3.059675097465515137e-01,2.520000000000000000e+02
1.060312099524177029e+03,1.039179665636172103e+03,1.210479564142874551e+03,1.232510137949520868e+03,9.617496642716305359e+02,9.644086480181995285e+02,1.605432476413547192e+03,1.045528484056694651e+03,9.523238182067871094e+00,2.677215635776519775e-01,-3.059675097465515137e-01,2.530000000000000000e+02
1.015489888219502063e+03,9.937902834374544909e+02,1.154571313835060209e+03,1.235513262289949125e+03,9.191895857258605247e+02,9.181360218805803015e+02,1.649955988076608264e+03,9.952710426426237973e+02,9.484992027282714844e+00,1.147378161549568176e-01,-1.912296712398529053e-01,2.540000000000000000e+02
1.035499829677441085e+03,1.019438198596792063e+03,1.169739532736823094e+03,1.165599369478241897e+03,9.262068261573958807e+02,9.382298817554146808e+02,1.543946122075843959e+03,1.046332301630849543e+03,9.484992027282714844e+00,1.147378161549568176e-01,-1.912296712398529053e-01,2.550000000000000000e+02
1.076540307328974450e+03,1.063678828132097806e+03,1.211844883652748649e+03,1.095561546438815640e+03,9.564644525616322426e+02,9.806213768840698322e+02,1.396812461031207931e+03,1.108489486337839480e+03,9.484992027282714844e+00,1.147378161549568176e-01,-1.912296712398529053e-01,2.560000000000000000e+02
1.065342171807729756e+03,1.048743838174399571e+03,1.200536510234522211e+03,1.097788178732418601e+03,9.521192053701588520e+02,9.697997462086259475e+02,1.374853411824682553e+03,1.076584636363763821e+03,9.484992027282714844e+00,1.147378161549568176e-01,-1.912296712398529053e-01,2.570000000000000000e+02
1.000163493390026815e+03,9.776461028719522801e+02,1.130085652644096626e+03,1.144193932593574573e+03,9.038213195419411932e+02,9.034451849688084621e+02,1.470863951597582854e+03,9.754362634970293584e+02,9.484992027282714844e+00,1.147378161549568176e-01,-1.912296712398529053e-01,2.580000000000000000e+02
9.527046763074758928e+02,9.289256603018184251e+02,1.076817159363388782e+03,1.146044236236479264e+03,8.636889897094697517e+02,8.568194893451527605e+02,1.514653639020998526e+03,9.262345248004094174e+02,9.484992027282714844e+00,1.147378161549568176e-01,-1.912296712398529053e-01,2.590000000000000000e+02
9.688596166051502223e+02,9.490545259927057486e+02,1.093442691358337470e+03,1.077781184041927190e+03,8.726096846824257227e+02,8.791575285001399607e+02,1.409149310500586580e+03,9.791624344885331084e+02,9.484992027282714844e+00,1.147378161549568176e-01,-1.912296712398529053e-01,2.600000000000000000e+02
1.006061127334969569e+03,9.897723814715627668e+02,1.136114723087740458e+03,1.012350114341330482e+03,9.028767957312802537e+02,9.247675469298164899e+02,1.264595865932351444e+03,1.043029887116019381e+03,9.484992027282714844e+00,1.147378161549568176e-01,-1.912296712398529053e-01,2.610000000000000000e+02
9.933258815062854410e+02,9.752235320238996792e+02,1.124746233628490700e+03,1.019649859583592843e+03,8.965779508900068322e+02,9.154176273054836201e+02,1.245784925293826745e+03,1.010994227682371275e+03,9.484992027282714844e+00,1.147378161549568176e-01,-1.912296712398529053e-01,2.620000000000000000e+02
9.297700468666789675e+02,9.069672233784731361e+02,1.053727385619980851e+03,1.069696752871237550e+03,8.462742088958148088e+02,8.484042367066103907e+02,1.344450289769703886e+03,9.088526495728638110e+02,9.484992027282714844e+00,1.147378161549568176e-01,-1.912296712398529053e-01,2.630000000000000000e+02
8.852737736285562278e+02,8.623734766649977246e+02,1.000139087011704760e+03,1.074116601162531879e+03,8.053096741617318912e+02,8.002459008963687666e+02,1.391187682720252269e+03,8.592446086701038439e+02,9.484992027282714844e+00,1.147378161549568176e-01,-1.912296712398529053e-01,2.640000000000000000e+02
9.036007466498049325e+02,8.873690150817728863e+02,1.017524042942706728e+03,1.007786697117448057e+03,8.138282456006945722e+02,8.209917527353100013e+02,1.289453873623453546e+03,9.116902153720775459e+02,9.484992027282714844e+00,1.147378161549568176e-01,-1.912296712398529053e-01,2.650000000000000000e+02
9.422338755801774823e+02,9.314681924892411189e+02,1.061817697999327720e+03,9.430979921485377417e+02,8.434426566138172348e+02,8.656283086650237237e+02,1.148702685991633189e+03,9.748432393414705075e+02,9.484992027282714844e+00,1.147378161549568176e-01,-1.912296712398529053e-01,2.660000000000000000e+02
9.312688600248020521e+02,9.170268623354168085e+02,1.052308011273958982e+03,9.499614077720179921e+02,8.366643290618503670e+02,8.567260178965279920e+02,1.133220348011873284e+03,9.437226682343880384e+02,9.484992027282714844e+00,1.147378161549568176e-01,-1.912296712398529053e-01,2.670000000000000000e+02
8.698572061855320499e+02,8.475919898077227117e+02,9.833112805907967413e+02,9.990466073498155311e+02,7.862562847483404767e+02,7.910262091269796656e+02,1.234953284431698194e+03,8.442975817249262036e+02,9.484992027282714844e+00,1.147378161549568176e-01,-1.912296712398529053e-01,2.680000000000000000e+02
8.274548840714051039e+02,8.033023344904322585e+02,9.316289018176848913e+02,1.001958907204007119e+03,7.454061267520064575e+02,7.434744010519189032e+02,1.283995082121440646e+03,7.966580726447409688e+02,9.484992027282714844e+00,1.147378161549568176e-01,-1.912296712398529053e-01,2.690000000000000000e+02
8.480308874745660432e+02,8.291453371117931965e+02,9.501835783015558263e+02,9.336664264066803298e+02,7.548134953670760297e+02,7.641902020280067518e+02,1.182802734793858690e+03,8.496296744133760512e+02,9.484992027282714844e+00,1.147378161549568176e-01,-1.912296712398529053e-01,2.700000000000000000e+02
8.891614931409876590e+02,8.724348369736253517e+02,9.955762848424710683e+02,8.678287348960966483e+02,7.865628408311767998e+02,8.097801371371206187e+02,1.041080073597808223e+03,9.139915107878550771e+02,9.484992027282714844e+00,1.147378161549568176e-01,-1.912296712398529053e-01,2.710000000000000000e+02
8.805897971727918048e+02,8.563148565062183479e+02,9.885812420978509181e+02,8.750251853033514635e+02,7.821662328948059439e+02,8.027826997560314339e+02,1.024488871148047110e+03,8.847981637242828583e+02,9.484992027282714844e+00,1.147378161549568176e-01,-1.912296712398529053e-01,2.720000000000000000e+02
8.215044474084661488e+02,7.861906547114340356e+02,9.229580694726028014e+02,9.248392954506780370e+02,7.329897960010894167e+02,7.379506993432150921e+02,1.125945982447708957e+03,7.851185085496454121e+02,9.484992027282714844e+00,1.147378161549568176e-01,-1.912296712398529053e-01,2.730000000000000000e+02
7.810848638132683845e+02,7.420745718469079293e+02,8.731854365150520607e+02,9.284348231751955609e+02,6.920448635533648485e+02,6.896307657019369799e+02,1.175989079864837549e+03,7.344448440799787932e+02,9.484992027282714844e+00,1.147378161549568176e-01,-1.912296712398529053e-01,2.740000000000000000e+02
8.016694369805754832e+02,7.686321993269793893e+02,8.913994073679514258e+02,8.620709126006731822e+02,7.006288663467148581e+02,7.094823993118134240e+02,1.077401279458190402e+03,7.848112941394429072e+02,9.484992027282714844e+00,1.147378161549568176e-01,-1.912296712398529053e-01,2.750000000000000000e+02
8.400374193395491602e+02,8.139940985219509457e+02,9.350212020813596610e+02,7.993715681292069348e+02,7.314596443383288715e+02,7.549175366113413475e+02,9.392010646861308487e+02,8.493809106908138347e+02,9.484992027282714844e+00,1.147378161549568176e-01,-1.912296712398529053e-01,2.760000000000000000e+02
8.281276754380887724e+02,8.008782233978017757e+02,9.249219845743755286e+02,8.084273834407013055e+02,7.271057758093429584e+02,7.478729547268430906e+02,9.252760635465419909e+02,8.225531572408672218e+02,9.484992027282714844e+00,1.147378161549568176e-01,-1.912296712398529053e-01,2.770000000000000000e+02
7.674139481024030829e+02,7.330459953057979874e+02,8.553323839775330271e+02,8.577340072005135880e+02,6.798720118847795675e+02,6.834635247376772895e+02,1.027997027179815632e+03,7.264443080011005804e+02,9.484992027282714844e+00,1.147378161549568176e-01,-1.912296712398529053e-01,2.780000000000000000e+02
7.261504438199408469e+02,6.905708284495776752e+02,8.033473852548340801e+02,8.607037458609593159e+02,6.421756322353139694e+02,6.372266875189161510e+02,1.079731521442481608e+03,6.804765312596682634e+02,9.484992027282714844e+00,1.147378161549568176e-01,-1.912296712398529053e-01,2.790000000000000000e+02
7.453447635408047063e+02,7.188557078461890342e+02,8.229822559305339382e+02,7.955040290787565027e+02,6.537739466690272820e+02,6.600147551265526999e+02,9.848406612671969924e+02,7.353459375610491406e+02,9.484992027282714844e+00,1.147378161549568176e-01,-1.912296712398529053e-01,2.800000000000000000e+02
7.833867907164967619e+02,7.645130335282501619e+02,8.702750288350198389e+02,7.348223936278045585e+02,6.868750786861382949e+02,7.070331371687134379e+02,8.511550431061587005e+02,8.017678732184194814e+02,9.561484336853027344e+00,2.294756323099136353e-01,-2.294756323099136353e-01,2.810000000000000000e+02
7.732815477871008625e+02,7.488178925288339087e+02,8.643354727439400449e+02,7.457991648317420186e+02,6.845804334419935913e+02,7.006415972804188641e+02,8.401771907398615440e+02,7.742548386643866252e+02,9.561484336853027344e+00,2.294756323099136353e-01,-2.294756323099136353e-01,2.820000000000000000e+02
7.135063252798427129e+02,6.773344561409703601e+02,7.992604910108020704e+02,7.980725654726993525e+02,6.393340551388937456e+02,6.388978032731683925e+02,9.436624826917941391e+02,6.783234471819068858e+02,9.561484336853027344e+00,2.294756323099136353e-01,-2.294756323099136353e-01,2.830000000000000000e+02
6.700878973553335527e+02,6.322784365746192634e+02,7.510488743336118205e+02,8.056438107082976785e+02,6.032449687811658805e+02,5.976387297562487220e+02,9.952026909020351013e+02,6.352167791978281457e+02,9.561484336853027344e+00,2.294756323099136353e-01,-2.294756323099136353e-01,2.840000000000000000e+02
6.874406349430973933e+02,6.588968480421062850e+02,7.716119133888932993e+02,7.448472276994725689e+02,6.159975727383953199e+02,6.240430367010540067e+02,9.003322496907640016e+02,6.927654637978557730e+02,9.561484336853027344e+00,2.294756323099136353e-01,-2.294756323099136353e-01,2.850000000000000000e+02
7.278083256894751685e+02,7.046477457989640243e+02,8.177146528852263145e+02,6.866637702241132502e+02,6.495262117675956688e+02,6.709083082406359608e+02,7.672717042134499934e+02,7.584689588715446007e+02,9.561484336853027344e+00,2.294756323099136353e-01,-2.294756323099136353e-01,2.860000000000000000e+02
7.223296029891989747e+02,6.936535187131921703e+02,8.114460459933070524e+02,6.985820520561319427e+02,6.462926904601608840e+02,6.622066468638840888e+02,7.577280348237727594e+02,7.282395881141655991e+02,9.561484336853027344e+00,2.294756323099136353e-01,-2.294756323099136353e-01,2.870000000000000000e+02
6.661431327446989599e+02,6.308583360936299869e+02,7.475177836323455267e+02,7.507627637087789481e+02,5.989070824751815962e+02,5.976691242674060049e+02,8.637335890992799250e+02,6.307791861876830808e+02,9.561484336853027344e+00,2.294756323099136353e-01,-2.294756323099136353e-01,2.880000000000000000e+02
6.262063707187298860e+02,5.930715815067214862e+02,7.003934253507559333e+02,7.568209107596267131e+02,5.607292761015487486e+02,5.525195945476498309e+02,9.187752179338822316e+02,5.871372459638951113e+02,9.561484336853027344e+00,2.294756323099136353e-01,-2.294756323099136353e-01,2.890000000000000000e+02
6.479676054599658528e+02,6.220761034525548894e+02,7.219052260229364038e+02,6.937065325273324561e+02,5.723685491553242173e+02,5.746563723118342750e+02,8.275091341483093856e+02,6.437130122199887410e+02,9.561484336853027344e+00,2.294756323099136353e-01,-2.294756323099136353e-01,2.900000000000000000e+02
6.901924233067074965e+02,6.670928439337931195e+02,7.694125155295914738e+02,6.343105053805520583e+02,6.058168853885799763e+02,6.203674151152954437e+02,6.970905400341143832e+02,7.099066277442943829e+02,9.561484336853027344e+00,2.294756323099136353e-01,-2.294756323099136353e-01,2.910000000000000000e+02
6.817812698831621674e+02,6.545466710788386990e+02,7.638511669277613692e+02,6.465596812447947741e+02,6.035105923233495560e+02,6.150217160381434951e+02,6.892166221330262488e+02,6.837320690074884624e+02,9.561484336853027344e+00,2.294756323099136353e-01,-2.294756323099136353e-01,2.920000000000000000e+02
6.219580127128610911e+02,5.895489393238785851e+02,6.991268223381666758e+02,6.989960996506197262e+02,5.577176635319883644e+02,5.550794860066380352e+02,7.969709287954683532e+02,5.909216664752057113e+02,9.561484336853027344e+00,2.294756323099136353e-01,-2.294756323099136353e-01,2.930000000000000000e+02
5.814442598268979054e+02,5.498954912371737009e+02,6.514047064870901522e+02,7.044650835384854872e+02,5.204710908942579408e+02,5.122919040729393600e+02,8.542903017061544233e+02,5.482293669260507158e+02,9.561484336853027344e+00,2.294756323099136353e-01,-2.294756323099136353e-01,2.940000000000000000e+02
6.034393874794623116e+02,5.798800742774619721e+02,6.740454277914432168e+02,6.410397214893528144e+02,5.313082364813599270e+02,5.345160558311908972e+02,7.651506116490963905e+02,6.030165067851230560e+02,9.561484336853027344e+00,2.294756323099136353e-01,-2.294756323099136353e-01,2.950000000000000000e+02
6.451434092226045323e+02,6.291934101327133249e+02,7.235172128863014223e+02,5.823657599988218863e+02,5.629659510217607021e+02,5.793389661911351141e+02,6.364665719244076172e+02,6.681081963146898488e+02,9.561484336853027344e+00,2.294756323099136353e-01,-2.294756323099136353e-01,2.960000000000000000e+02
6.396187888919812394e+02,6.216359656351305603e+02,7.196395421805573278e+02,5.960126280591393879e+02,5.594190053154270572e+02,5.726960565171721100e+02,6.304417723525839392e+02,6.411094854334987758e+02,9.561484336853027344e+00,2.294756323099136353e-01,-2.294756323099136353e-01,2.970000000000000000e+02
5.878281311484715843e+02,5.597877974968650960e+02,6.566336499900426134e+02,6.506963992429482460e+02,5.134577641293908528e+02,5.119450320331161493e+02,7.396675564618417411e+02,5.458520586515114701e+02,9.561484336853027344e+00,2.294756323099136353e-01,-2.294756323099136353e-01,2.980000000000000000e+02
5.541168403090487118e+02,5.213295887945241702e+02,6.106416343886739924e+02,6.596391113108038553e+02,4.767826859193228302e+02,4.699180398528405931e+02,7.969135357688137447e+02,5.009244253519318590e+02,9.561484336853027344e+00,2.294756323099136353e-01,-2.294756323099136353e-01,2.990000000000000000e+02
5.761600901824494940e+02,5.516702786105961422e+02,6.336803425455364049e+02,5.995480360929504968e+02,4.885710498134067166e+02,4.939945908446316025e+02,7.068696935884108825e+02,5.563343680747166218e+02,9.561484336853027344e+00,2.294756323099136353e-01,-2.294756323099136353e-01,3.000000000000000000e+02
6.139524536360731872e+02,6.005254273907266906e+02,6.814005589453627181e+02,5.421804270234897558e+02,5.212440456326075946e+02,5.406390234501850500e+02,5.785839238487060356e+02,6.235500648681882012e+02,9.561484336853027344e+00,2.294756323099136353e-01,-2.294756323099136353e-01,3.010000000000000000e+02
6.049436499722141889e+02,5.904469710724624747e+02,6.746520278552998207e+02,5.557194604299802450e+02,5.189000084613508079e+02,5.359772733286990842e+02,5.744564059790973261e+02,5.979028761970730557e+02,9.561484336853027344e+00,2.294756323099136353e-01,-2.294756323099136353e-01,3.020000000000000000e+02
5.499016512992166099e+02,5.238805629195558140e+02,6.094624031179700978e+02,6.109777849710953888e+02,4.750986542029713746e+02,4.775917371171453851e+02,6.852841544409202470e+02,5.041583229151219712e+02,9.561484336853027344e+00,2.294756323099136353e-01,-2.294756323099136353e-01,3.030000000000000000e+02
5.133951405399202486e+02,4.807851021161623066e+02,5.631050871580373496e+02,6.211905259084924182e+02,4.416966846815848839e+02,4.371724215398098750e+02,7.432767761986033292e+02,4.620241544035452534e+02,9.561484336853027344e+00,2.294756323099136353e-01,-2.294756323099136353e-01,3.040000000000000000e+02
5.360902202394208871e+02,5.087903193784659379e+02,5.879145097485525184e+02,5.614982511730340775e+02,4.569486001752993616e+02,4.619576566418509174e+02,6.541477455364110938e+02,5.200603599697606114e+02,9.561484336853027344e+00,2.294756323099136353e-01,-2.294756323099136353e-01,3.050000000000000000e+02
5.769913127411200549e+02,5.572731473428611935e+02,6.394719485750501917e+02,5.038642437638773117e+02,4.929210466860276938e+02,5.104494490968099853e+02,5.270155880585225532e+02,5.892421113161981339e+02,9.561484336853027344e+00,2.294756323099136353e-01,-2.294756323099136353e-01,3.060000000000000000e+02
5.680561076441154000e+02,5.475368991876894142e+02,6.377433380111069710e+02,5.179596994746170822e+02,4.939687791579090117e+02,5.092189328117783589e+02,5.233832078540726798e+02,5.667424505962517287e+02,9.561484336853027344e+00,2.294756323099136353e-01,-2.294756323099136353e-01,3.070000000000000000e+02
5.092374743834770925e+02,4.822091185968238278e+02,5.764877296915583429e+02,5.743701836228719912e+02,4.524279174732582760e+02,4.529264781744204811e+02,6.344066167050696095e+02,4.770898074177530361e+02,9.561484336853027344e+00,2.294756323099136353e-01,-2.294756323099136353e-01,3.080000000000000000e+02
4.704308306383754825e+02,4.415602631554793334e+02,5.308324500780945527e+02,5.852898625514499145e+02,4.185437717950298975e+02,4.115999856642156374e+02,6.938746648698434001e+02,4.371344217180412670e+02,9.561484336853027344e+00,2.294756323099136353e-01,-2.294756323099136353e-01,3.090000000000000000e+02
4.947821242995814828e+02,4.721606255283841165e+02,5.537932363969484868e+02,5.268411164256685879e+02,4.320128139865119010e+02,4.349444957819323463e+02,6.082573942464223364e+02,4.950520087105869607e+02,9.561484336853027344e+00,2.294756323099136353e-01,-2.294756323099136353e-01,3.100000000000000000e+02
5.385453651167263160e+02,5.228095891586708603e+02,6.040617051811204874e+02,4.724363851217203774e+02,4.677928550630858808e+02,4.836351221679942682e+02,4.860760689338785596e+02,5.640884507356204267e+02,9.561484336853027344e+00,2.294756323099136353e-01,-2.294756323099136353e-01,3.110000000000000000e+02
5.320877434385183733e+02,5.158937437777349260e+02,6.034535029416583711e+02,4.904962798521846707e+02,4.699023286255687708e+02,4.826049780740431743e+02,4.874083390776650049e+02,5.414013246519971290e+02,9.484992027282714844e+00,1.147378161549568176e-01,-1.529837548732757568e-01,3.120000000000000000e+02
4.759428281553009583e+02,4.544494139585149242e+02,5.447191402544631273e+02,5.492924392586137401e+02,4.282981925221283745e+02,4.247028764729329851e+02,6.020425047775424900e+02,4.496222258450725349e+02,9.484992027282714844e+00,1.147378161549568176e-01,-1.529837548732757568e-01,3.130000000000000000e+02
4.387221241581646609e+02,4.172406919161803671e+02,5.013174541251282790e+02,5.610441619294833799e+02,3.932930444666017138e+02,3.815244844387343619e+02,6.632235762066047755e+02,4.063439329693392210e+02,9.484992027282714844e+00,1.147378161549568176e-01,-1.529837548732757568e-01,3.140000000000000000e+02
4.622728533847621293e+02,4.495579605153216107e+02,5.253142034437696566e+02,5.030507971114202519e+02,4.057543407521807239e+02,4.048532350016757846e+02,5.777886356217859429e+02,4.621012432042989531e+02,9.484992027282714844e+00,1.147378161549568176e-01,-1.529837548732757568e-01,3.150000000000000000e+02
5.051473545266198926e+02,5.003661426417638722e+02,5.743332169693894684e+02,4.482005810868940898e+02,4.394291810504837485e+02,4.546519529648212483e+02,4.545293252657938865e+02,5.301914028316532495e+02,9.484992027282714844e+00,1.147378161549568176e-01,-1.529837548732757568e-01,3.160000000000000000e+02
4.999678743452277558e+02,4.924713700751090073e+02,5.696988655492859834e+02,4.639287867585589993e+02,4.373729321208229521e+02,4.543718483386073785e+02,4.538606866200934746e+02,5.068783925289026229e+02,9.484992027282714844e+00,1.147378161549568176e-01,-1.529837548732757568e-01,3.170000000000000000e+02
4.457323829507477058e+02,4.292941194265040394e+02,5.061312934937668615e+02,5.196817499731077987e+02,3.921300125721609220e+02,3.974085893035044137e+02,5.666951786991339759e+02,4.157786789054807741e+02,9.484992027282714844e+00,1.147378161549568176e-01,-1.529837548732757568e-01,3.180000000000000000e+02
4.095090611633895605e+02,3.904143383616828942e+02,4.600534872059834015e+02,5.299415352404321311e+02,3.565500215854699491e+02,3.564616036890802206e+02,6.275428227421143674e+02,3.752650934533667169e+02,9.484992027282714844e+00,1.147378161549568176e-01,-1.529837548732757568e-01,3.190000000000000000e+02
4.343772575420516660e+02,4.214571195595199242e+02,4.840081064537516795e+02,4.727221715805062559e+02,3.702976866731514747e+02,3.824170261226609000e+02,5.431510372994380305e+02,4.342314992990795872e+02,9.484992027282714844e+00,1.147378161549568176e-01,-1.529837548732757568e-01,3.200000000000000000e+02
4.791605434289049299e+02,4.709687493089222698e+02,5.338841916552009934e+02,4.200361843305799994e+02,4.052970834469269903e+02,4.332754061673622346e+02,4.212440947611394222e+02,5.042883999842088087e+02,9.484992027282714844e+00,1.147378161549568176e-01,-1.529837548732757568e-01,3.210000000000000000e+02
4.745409193374143797e+02,4.618718849667311588e+02,5.302700209200229438e+02,4.383417661734893045e+02,4.052098102443851531e+02,4.324107104983413592e+02,4.217291944175303797e+02,4.821417151185341936e+02,9.484992027282714844e+00,1.147378161549568176e-01,-1.529837548732757568e-01,3.220000000000000000e+02
4.194468272557096498e+02,3.976207893708669872e+02,4.684271679240919184e+02,4.964709053924379987e+02,3.630205523479817202e+02,3.752834154880292772e+02,5.356202310070293606e+02,3.924128657807741547e+02,9.484992027282714844e+00,1.147378161549568176e-01,-1.529837548732757568e-01,3.230000000000000000e+02
3.828839489634738129e+02,3.563086094499922183e+02,4.242816121713112807e+02,5.084242983137119154e+02,3.298390338749159127e+02,3.354036446939280722e+02,5.972440207803520025e+02,3.531664548974440550e+02,9.484992027282714844e+00,1.147378161549568176e-01,-1.529837548732757568e-01,3.240000000000000000e+02
4.079148089915070159e+02,3.832695631413589581e+02,4.492265494673010835e+02,4.518670161053269112e+02,3.439271790716557007e+02,3.611367095633540885e+02,5.129042838834575377e+02,4.119692572113854112e+02,9.484992027282714844e+00,1.147378161549568176e-01,-1.529837548732757568e-01,3.250000000000000000e+02
4.523776861469596042e+02,4.307495712377276504e+02,4.998520907293386699e+02,3.987354024289961671e+02,3.780097880133762374e+02,4.081804389891367464e+02,3.901604030591988703e+02,4.797066659127995081e+02,9.484992027282714844e+00,1.147378161549568176e-01,-1.529837548732757568e-01,3.260000000000000000e+02
4.485405418609516346e+02,4.248397884218284162e+02,4.986065874959494977e+02,4.159352419526185258e+02,3.772551160516486561e+02,4.021554123300957144e+02,3.892462069265820901e+02,4.544737582612797269e+02,9.484992027282714844e+00,1.147378161549568176e-01,-1.529837548732757568e-01,3.270000000000000000e+02
3.968791172040437232e+02,3.665051221456669737e+02,4.404823566180493799e+02,4.732144391033289139e+02,3.352733135296512046e+02,3.425383243491269241e+02,5.020356565793990740e+02,3.632972972669849696e+02,9.484992027282714844e+00,1.147378161549568176e-01,-1.529837548732757568e-01,3.280000000000000000e+02
3.639033306619530777e+02,3.299954476660495857e+02,3.989416146251314785e+02,4.850616223830293166e+02,3.029733046117798949e+02,3.027937741095593083e+02,5.637962253674922977e+02,3.243188430478730879e+02,9.484992027282714844e+00,1.147378161549568176e-01,-1.529837548732757568e-01,3.290000000000000000e+02
3.895254663825180614e+02,3.610209351062076166e+02,4.242370419272920117e+02,4.286971563321785652e+02,3.183236996414052555e+02,3.288223944838646275e+02,4.809840432335622609e+02,3.830571029282182280e+02,9.484992027282714844e+00,1.147378161549568176e-01,-1.529837548732757568e-01,3.300000000000000000e+02
4.326464723486278672e+02,4.121965223460720154e+02,4.745064261229053955e+02,3.756551580952218501e+02,3.542103448689049401e+02,3.771725377302100242e+02,3.606120138698606752e+02,4.505120071914971049e+02,9.484992027282714844e+00,1.147378161549568176e-01,-1.529837548732757568e-01,3.310000000000000000e+02
4.280717881192031200e+02,4.059190723666324629e+02,4.738241460718636517e+02,3.931930148782557808e+02,3.557678544678128674e+02,3.756411709647836688e+02,3.625257237818877911e+02,4.270162146779584873e+02,9.484992027282714844e+00,1.147378161549568176e-01,-1.529837548732757568e-01,3.320000000000000000e+02
3.755522034493187675e+02,3.421076595383055974e+02,4.168874443390668603e+02,4.512530387701481231e+02,3.154810437521337008e+02,3.213624644033479854e+02,4.782576205003279028e+02,3.390176891531518777e+02,9.523238182067871094e+00,2.294756323099136353e-01,-1.912296712398529053e-01,3.330000000000000000e+02
3.395382847419605241e+02,3.008294989247660851e+02,3.762303061109851114e+02,4.637199235286898329e+02,2.835113876832510869e+02,2.838092032360582380e+02,5.422698344892487512e+02,3.017213214136536408e+02,9.523238182067871094e+00,2.294756323099136353e-01,-1.912296712398529053e-01,3.340000000000000000e+02
3.607000736449845135e+02,3.314757931810490845e+02,4.020974231885375048e+02,4.073369497648454853e+02,2.992597435317584313e+02,3.097856663320853841e+02,4.605935136976404465e+02,3.610316483892565884e+02,9.523238182067871094e+00,2.294756323099136353e-01,-1.912296712398529053e-01,3.350000000000000000e+02
4.003101196784482454e+02,3.825776307447194995e+02,4.526939502713285037e+02,3.539860354090269539e+02,3.369042775815687492e+02,3.587682133318594424e+02,3.409439769308737596e+02,4.308690923191024922e+02,9.523238182067871094e+00,2.294756323099136353e-01,-1.912296712398529053e-01,3.360000000000000000e+02
3.937477986770099960e+02,3.740152522802272870e+02,4.512209576558889239e+02,3.715849271142215002e+02,3.398406795223636436e+02,3.574444524384744000e+02,3.435928442267249920e+02,4.110962557221064344e+02,9.523238182067871094e+00,2.294756323099136353e-01,-1.912296712398529053e-01,3.370000000000000000e+02
3.399771005399743444e+02,3.106069498426986684e+02,3.919215242376449169e+02,4.305792216184490826e+02,2.986196427015165682e+02,3.011797069659005501e+02,4.596259729285084177e+02,3.254089881749459892e+02,9.523238182067871094e+00,2.294756323099136353e-01,-1.912296712398529053e-01,3.380000000000000000e+02
3.037309211793181021e+02,2.750268419855565298e+02,3.487658540008123964e+02,4.449956847814901266e+02,2.651323885768651962e+02,2.622997160718805389e+02,5.235923769660730613e+02,2.894774201423060731e+02,9.523238182067871094e+00,2.294756323099136353e-01,-1.912296712398529053e-01,3.390000000000000000e+02
3.268794624282745644e+02,3.109130490279494552e+02,3.736790245653828606e+02,3.908326504337601364e+02,2.813055378562057740e+02,2.906841616748642991e+02,4.427474565329030156e+02,3.510746259366569575e+02,9.523238182067871094e+00,2.294756323099136353e-01,-1.912296712398529053e-01,3.400000000000000000e+02
3.707999976221326506e+02,3.623829499405692331e+02,4.244727521566528594e+02,3.385696798965072958e+02,3.203095407508808421e+02,3.437244350585242501e+02,3.245316582050145371e+02,4.224507738605316263e+02,9.523238182067871094e+00,2.294756323099136353e-01,-1.912296712398529053e-01,3.410000000000000000e+02
3.693998836814935203e+02,3.527149900903677917e+02,4.232834430385555606e+02,3.554597538307789364e+02,3.234660937785738497e+02,3.448328874355502194e+02,3.283896700143741327e+02,4.008897829429406556e+02,9.523238182067871094e+00,2.294756323099136353e-01,-1.912296712398529053e-01,3.420000000000000000e+02
3.200641731553914724e+02,2.895054964724404272e+02,3.653749466801527888e+02,4.125721914431560435e+02,2.821776693971114582e+02,2.896427553953471943e+02,4.445764142206899123e+02,3.114137164476996986e+02,9.523238182067871094e+00,2.294756323099136353e-01,-1.912296712398529053e-01,3.430000000000000000e+02
2.870312023823789787e+02,2.521155548659371561e+02,3.262137653800746193e+02,4.249375338399768225e+02,2.498076440295262728e+02,2.514791535668045981e+02,5.088302969081050833e+02,2.723920044660699205e+02,9.523238182067871094e+00,2.294756323099136353e-01,-1.912296712398529053e-01,3.440000000000000000e+02
3.123408986484646448e+02,2.829545650064246729e+02,3.561102726738026831e+02,3.695165365646826103e+02,2.668998908612193190e+02,2.791837624992040219e+02,4.293563159560726490e+02,3.315574648180991062e+02,9.523238182067871094e+00,2.294756323099136353e-01,-1.912296712398529053e-01,3.450000000000000000e+02
3.572333796812017681e+02,3.318842239468940534e+02,4.097397390961705241e+02,3.178317891188999056e+02,3.047743015505038784e+02,3.297285384713613894e+02,3.130135312510465155e+02,4.004690941460430622e+02,9.523238182067871094e+00,2.294756323099136353e-01,-1.912296712398529053e-01,3.460000000000000000e+02
3.553683609434447135e+02,3.263645334348038887e+02,4.091474593994498719e+02,3.373563171592832077e+02,3.058669669244118268e+02,3.282732916080349241e+02,3.172268753559837933e+02,3.777139918107423000e+02,9.523238182067871094e+00,2.294756323099136353e-01,-1.912296712398529053e-01,3.470000000000000000e+02
3.048174126841913676e+02,2.701672067738691112e+02,3.516070337583369110e+02,3.978107830570515944e+02,2.636694059899600688e+02,2.719543178602325497e+02,4.329326867017516633e+02,2.890736631886538817e+02,9.523238182067871094e+00,2.294756323099136353e-01,-1.912296712398529053e-01,3.480000000000000000e+02
2.712017854604273452e+02,2.372787724271474872e+02,3.121456810060844873e+02,4.127526221418156638e+02,2.311669298775450443e+02,2.339746498156819143e+02,4.972945981120283250e+02,2.511223927659957553e+02,9.523238182067871094e+00,2.294756323099136353e-01,-1.912296712398529053e-01,3.490000000000000000e+02
2.968920053194815409e+02,2.701646305803005816e+02,3.391961260685784509e+02,3.591394236035266658e+02,2.473162621158626280e+02,2.622419571889186045e+02,4.182389314253523480e+02,3.101289642240881221e+02,9.523238182067871094e+00,2.294756323099136353e-01,-1.912296712398529053e-01,3.500000000000000000e+02
3.420007003522623563e+02,3.210894195413420675e+02,3.888053472811516258e+02,3.090109719244646840e+02,2.839528573242860148e+02,3.126241153721202863e+02,3.012539550101500936e+02,3.787522592715104111e+02,9.523238182067871094e+00,2.294756323099136353e-01,-1.912296712398529053e-01,3.510000000000000000e+02
3.396708824279194232e+02,3.171983472956198966e+02,3.864794276948086917e+02,3.292409912979419460e+02,2.856647421879824833e+02,3.098262697545287665e+02,3.039409366883191979e+02,3.568315711413961253e+02,9.523238182067871094e+00,2.294756323099136353e-01,-1.912296712398529053e-01,3.520000000000000000e+02
2.893644278760257293e+02,2.607265307457346353e+02,3.300665608244962641e+02,3.884480587813959573e+02,2.463316813000565162e+02,2.516407136999769136e+02,4.184870847316706204e+02,2.691093790108570829e+02,9.523238182067871094e+00,2.294756323099136353e-01,-1.912296712398529053e-01,3.530000000000000000e+02
2.580862350455863634e+02,2.260143177896534326e+02,2.928137912092279294e+02,4.002475924978061812e+02,2.168069512095680693e+02,2.116626690560369752e+02,4.822338934764193255e+02,2.305463822217498091e+02,9.523238182067871094e+00,2.294756323099136353e-01,-1.912296712398529053e-01,3.540000000000000000e+02
2.873744906261781580e+02,2.567633873692830093e+02,3.228397701489229803e+02,3.428609875863767229e+02,2.343830130631831707e+02,2.376264383254165296e+02,4.027026793317927513e+02,2.880031197019925457e+02,9.523238182067871094e+00,2.294756323099136353e-01,-1.912296712398529053e-01,3.550000000000000000e+02
3.353331904040533118e+02,3.055137871454207925e+02,3.763532197578169871e+02,2.896143260306125740e+02,2.715562150574696716e+02,2.868295451446974766e+02,2.861833026343520032e+02,3.562848774624799262e+02,9.523238182067871094e+00,2.294756323099136353e-01,-1.912296712398529053e-01,3.560000000000000000e+02
3.343350137754241587e+02,2.994974714156487607e+02,3.769774873020069208e+02,3.081768141678403481e+02,2.739814169861347182e+02,2.863229973769048229e+02,2.910016951292636804e+02,3.359636195721323020e+02,9.523238182067871094e+00,2.294756323099136353e-01,-1.912296712398529053e-01,3.570000000000000000e+02
2.842747470104295644e+02,2.419939777230101754e+02,3.211403119371243520e+02,3.676864609452895820e+02,2.351302068382428843e+02,2.331126049826852977e+02,4.076864566055010073e+02,2.503033422564694774e+02,9.446745872497558594e+00,1.147378161549568176e-01,-3.059675097465515137e-01,3.580000000000000000e+02
2.521181063238982460e+02,2.086539860895354650e+02,2.836270308343300712e+02,3.818208600837169797e+02,2.052016747896341258e+02,1.973626948204328073e+02,4.713174687701102812e+02,2.128104490867481218e+02,9.446745872497558594e+00,1.147378161549568176e-01,-3.059675097465515137e-01,3.590000000000000000e+02
2.788833930865803268e+02,2.431493235985471983e+02,3.139212812016339740e+02,3.278898620715845027e+02,2.219938190999600920e+02,2.257861269388449728e+02,3.900007459541520802e+02,2.705771764017626992e+02,9.446745872497558594e+00,1.147378161549568176e-01,-3.059675097465515137e-01,3.600000000000000000e+02
3.229695453340536915e+02,2.956921973345888546e+02,3.669050543357661809e+02,2.775637263554817764e+02,2.585255920668860199e+02,2.772186624991372810e+02,2.724852195303974440e+02,3.392600286193192005e+02,9.446745872497558594e+00,1.147378161549568176e-01,-3.059675097465515137e-01,3.610000000000000000e+02
3.179117316668271087e+02,2.903742695276669110e+02,3.651611813426643494e+02,2.974255188154056668e+02,2.599752043356565991e+02,2.785429180905848625e+02,2.778626272458059248e+02,3.195203861488480470e+02,9.446745872497558594e+00,1.147378161549568176e-01,-3.059675097465515137e-01,3.620000000000000000e+02
2.645085839207458775e+02,2.300275412526752916e+02,3.064156745261716424e+02,3.571511449037498096e+02,2.197185473930076114e+02,2.256005946834993665e+02,3.957262295397667913e+02,2.345899167152456357e+02,9.446745872497558594e+00,1.147378161549568176e-01,-3.059675097465515137e-01,3.630000000000000000e+02
2.299023891501419712e+02,1.931270775949160452e+02,2.666917823598487303e+02,3.718887875296204584e+02,1.893350475891711540e+02,1.901290921352047008e+02,4.610381173192581628e+02,1.988223489275624161e+02,9.446745872497558594e+00,1.147378161549568176e-01,-3.059675097465515137e-01,3.640000000000000000e+02
2.550009689979560790e+02,2.250994325006322470e+02,2.955078734268900007e+02,3.195977068478750880e+02,2.078428751032915898e+02,2.208393318381858990e+02,3.823731664061197080e+02,2.598909955275812536e+02,9.446745872497558594e+00,1.147378161549568176e-01,-3.059675097465515137e-01,3.650000000000000000e+02
2.982770126464456553e+02,2.747863642057200195e+02,3.481543111118735396e+02,2.712390626599590178e+02,2.473854410122876288e+02,2.747407215419443673e+02,2.675834864266653312e+02,3.320996027438814053e+02,9.446745872497558594e+00,1.147378161549568176e-01,-3.059675097465515137e-01,3.660000000000000000e+02
2.935114801799718407e+02,2.661739824516844237e+02,3.474284720103969448e+02,2.924924743910887628e+02,2.509531775895302417e+02,2.759758766442901106e+02,2.742138343914411962e+02,3.140275742377998540e+02,9.446745872497558594e+00,1.147378161549568176e-01,-3.059675097465515137e-01,3.670000000000000000e+02
2.414120281803043326e+02,2.054273227615849464e+02,2.897016477569050039e+02,3.528445698346986319e+02,2.108540541325710365e+02,2.212767462904885178e+02,3.909380023929406889e+02,2.289493152853101492e+02,9.446745872497558594e+00,1.147378161549568176e-01,-3.059675097465515137e-01,3.680000000000000000e+02
2.084329106628210866e+02,1.723655025999178179e+02,2.501856782582835876e+02,3.676942764032573905e+02,1.796062170120858354e+02,1.840674310916438117e+02,4.550835324426589068e+02,1.930269279593048850e+02,9.446745872497558594e+00,1.147378161549568176e-01,-3.059675097465515137e-01,3.690000000000000000e+02
2.351021663032952347e+02,2.089215222611965146e+02,2.799106345800755662e+02,3.147000954083487159e+02,1.977134851400624029e+02,2.116235808727797121e+02,3.759285610849765362e+02,2.540896777957314043e+02,9.446745872497558594e+00,1.147378161549568176e-01,-3.059675097465515137e-01,3.700000000000000000e+02
2.808477952074099449e+02,2.615412971865152940e+02,3.351556473244563676e+02,2.642478211231791647e+02,2.377576937590056332e+02,2.597700291200890206e+02,2.607619558469887124e+02,3.245117152582897688e+02,9.446745872497558594e+00,1.147378161549568176e-01,-3.059675097465515137e-01,3.710000000000000000e+02
2.807318962029967224e+02,2.562051702394965105e+02,3.370016844541532919e+02,2.820905159738322254e+02,2.422800173147843452e+02,2.554651448253789567e+02,2.663468406448373571e+02,3.026319152468931861e+02,9.446745872497558594e+00,1.147378161549568176e-01,-3.059675097465515137e-01,3.720000000000000000e+02
2.349087799155458924e+02,1.995292908911214909e+02,2.800556312597327633e+02,3.388316218355103047e+02,2.031966408028965816e+02,1.985336063032154925e+02,3.820453092022216879e+02,2.144320860884763533e+02,9.446745872497558594e+00,1.147378161549568176e-01,-3.059675097465515137e-01,3.730000000000000000e+02
2.074293396165739978e+02,1.674488270672591170e+02,2.400051967318504467e+02,3.510554634190993966e+02,1.727700756492631626e+02,1.616333273198324605e+02,4.449258992925606435e+02,1.779872123020686558e+02,9.446745872497558594e+00,1.147378161549568176e-01,-3.059675097465515137e-01,3.740000000000000000e+02
2.367275094211945543e+02,2.004843851596524473e+02,2.691710043673228938e+02,2.970097227028163616e+02,1.912797476404521149e+02,1.902417729051958304e+02,3.653826253038714640e+02,2.401807746313861571e+02,9.446745872497558594e+00,1.147378161549568176e-01,-3.059675097465515137e-01,3.750000000000000000e+02
2.816095887010451406e+02,2.492775782813623664e+02,3.247387417063073372e+02,2.472727512486890191e+02,2.316952878395168227e+02,2.406972163591417484e+02,2.510079366349382326e+02,3.123049724766460713e+02,9.446745872497558594e+00,1.147378161549568176e-01,-3.059675097465515137e-01,3.760000000000000000e+02
2.775432293866251712e+02,2.427059967808163492e+02,3.283914895672496641e+02,2.679928566086091450e+02,2.372533210735055036e+02,2.404102196198509773e+02,2.579027907903946470e+02,2.930072571749115014e+02,9.446745872497558594e+00,1.147378161549568176e-01,-3.059675097465515137e-01,3.770000000000000000e+02
2.261904459530342137e+02,1.855102620880279574e+02,2.737997302418152685e+02,3.296411167012847727e+02,1.991296230335647124e+02,1.872720446407911368e+02,3.750967126980831381e+02,2.076798747266875580e+02,9.446745872497558594e+00,1.147378161549568176e-01,-3.059675097465515137e-01,3.780000000000000000e+02
1.944640748984675156e+02,1.529820676461313269e+02,2.339439671431464376e+02,3.470246210048644571e+02,1.672952159850683529e+02,1.521373589381837519e+02,4.399001489528745878e+02,1.722965915489185136e+02,9.446745872497558594e+00,1.147378161549568176e-01,-3.059675097465515137e-01,3.790000000000000000e+02
2.232242221386695746e+02,1.886105483308492694e+02,2.599611870424778317e+02,2.960096612216075300e+02,1.810530345831939485e+02,1.809030215441161999e+02,3.621863968765392201e+02,2.328761432901374064e+02,9.446745872497558594e+00,1.147378161549568176e-01,-3.059675097465515137e-01,3.800000000000000000e+02
2.708276769428775879e+02,2.432608176083958824e+02,3.113597197195849731e+02,2.465981205158750527e+02,2.155357195960823447e+02,2.307638753097344306e+02,2.484658561866817763e+02,3.019786011722535477e+02,9.446745872497558594e+00,1.147378161549568176e-01,-3.059675097465515137e-01,3.810000000000000000e+02
2.701199761119642062e+02,2.411174007551162504e+02,3.128774474385863869e+02,2.663609939666785067e+02,2.172327268102890230e+02,2.293280463320334093e+02,2.551437590022833319e+02,2.796469333478307817e+02,9.446745872497558594e+00,1.147378161549568176e-01,-3.059675097465515137e-01,3.820000000000000000e+02
2.209609462091320893e+02,1.840730045872551273e+02,2.592343362824030919e+02,3.270975709757403820e+02,1.789611931209656177e+02,1.754502300072490470e+02,3.727273789445171133e+02,1.921053283846267732e+02,9.446745872497558594e+00,1.147378161549568176e-01,-3.059675097465515137e-01,3.830000000000000000e+02
1.899023462573968573e+02,1.496884317680014647e+02,2.228282351319212466e+02,3.440369054836774012e+02,1.505341829722747207e+02,1.415608384170627687e+02,4.388122194764437154e+02,1.562311411810442223e+02,9.446745872497558594e+00,1.147378161549568176e-01,-3.059675097465515137e-01,3.840000000000000000e+02
2.171603872107953066e+02,1.836495885945259943e+02,2.529436198988332762e+02,2.935299316749151330e+02,1.698402216333342949e+02,1.736533503564351122e+02,3.623069195792777464e+02,2.181648973495539394e+02,9.446745872497558594e+00,2.294756323099136353e-01,-2.294756323099136353e-01,3.850000000000000000e+02
2.606376753154763719e+02,2.359188243071548641e+02,3.060717578214826062e+02,2.459518575525726192e+02,2.093171390408024308e+02,2.274532415523935924e+02,2.495505755657504778e+02,2.892603650255332468e+02,9.446745872497558594e+00,2.294756323099136353e-01,-2.294756323099136353e-01,3.860000000000000000e+02
2.550638981102310936e+02,2.301942889701967943e+02,3.053222931174968835e+02,2.678839322043349966e+02,2.129700357312540291e+02,2.292718274757935433e+02,2.572901869448542129e+02,2.688429989637152175e+02,9.446745872497558594e+00,2.294756323099136353e-01,-2.294756323099136353e-01,3.870000000000000000e+02
2.031740632935980102e+02,1.698396858599589905e+02,2.473427319583643111e+02,3.294897431752760895e+02,1.738308325070393039e+02,1.772689765294780955e+02,3.751483444409532240e+02,1.838256262237409828e+02,9.446745872497558594e+00,2.294756323099136353e-01,-2.294756323099136353e-01,3.880000000000000000e+02
1.717640959244818077e+02,1.326958736046071863e+02,2.077527940976506216e+02,3.458894374383380637e+02,1.441026809154936927e+02,1.434200346890866058e+02,4.399162380549532827e+02,1.513802781051199418e+02,9.446745872497558594e+00,2.294756323099136353e-01,-2.294756323099136353e-01,3.890000000000000000e+02
1.991224189870263217e+02,1.631787167252186919e+02,2.370671931974211475e+02,2.947714652855502209e+02,1.630645202839223202e+02,1.739227023343119072e+02,3.617966269390308298e+02,2.166661503908253508e+02,9.446745872497558594e+00,2.294756323099136353e-01,-2.294756323099136353e-01,3.900000000000000000e+02
2.426759701153205242e+02,2.121124950039011310e+02,2.913394516902626492e+02,2.471012843805365264e+02,2.028530658220552141e+02,2.253690851969222422e+02,2.489953914306388469e+02,2.902282977240975015e+02,9.446745872497558594e+00,2.294756323099136353e-01,-2.294756323099136353e-01,3.910000000000000000e+02
2.382900338750478113e+02,2.064271254156483337e+02,2.931740932940010680e+02,2.684885846572287846e+02,2.074761765251678298e+02,2.245669351841133903e+02,2.576336297470843419e+02,2.711299369218686479e+02,9.446745872497558594e+00,2.294756323099136353e-01,-2.294756323099136353e-01,3.920000000000000000e+02
1.891271471251384355e+02,1.510901171116784099e+02,2.386182892636352335e+02,3.280833796163205989e+02,1.703721722881891765e+02,1.696465372357342858e+02,3.743523873122612713e+02,1.855516956630599452e+02,9.446745872497558594e+00,2.294756323099136353e-01,-2.294756323099136353e-01,3.930000000000000000e+02
1.609062369347666390e+02,1.216623181746035698e+02,2.018618595186708262e+02,3.418131643165979767e+02,1.419659867763693910e+02,1.319968257128348341e+02,4.373191364219237585e+02,1.495343721601311699e+02,9.446745872497558594e+00,2.294756323099136353e-01,-2.294756323099136353e-01,3.940000000000000000e+02
1.916094545290688984e+02,1.598897527116787387e+02,2.324685875972209033e+02,2.877435979096917436e+02,1.597497208968779887e+02,1.579058606714243069e+02,3.582387314065272221e+02,2.092045427334523993e+02,9.446745872497558594e+00,2.294756323099136353e-01,-2.294756323099136353e-01,3.950000000000000000e+02
2.379445619900943711e+02,2.147592149640986463e+02,2.864382876980089350e+02,2.364303517283478868e+02,1.969459630926357931e+02,2.049955954236793332e+02,2.453418116136017488e+02,2.780157813509358675e+02,9.446745872497558594e+00,2.294756323099136353e-01,-2.294756323099136353e-01,3.960000000000000000e+02
