F3,F4,C3,C4,P3,P4,Cz,Pz,Accel_x,Accel_y,Accel_z,Sample
2.546585164964199066e-11,4.547473508864641190e-12,3.183231456205248833e-12,-5.002220859751105309e-12,-1.182343112304806709e-11,1.546140993013978004e-11,3.637978807091712952e-12,2.273736754432320595e-12,0.000000000000000000e+00,0.000000000000000000e+00,0.000000000000000000e+00,0.000000000000000000e+00
2.000291196400508343e+05,1.881589243006206234e+05,7.698912269755431043e+04,9.846991199504310498e+04,1.967189628862035752e+05,1.976051163390672009e+05,1.087832812844473810e+05,8.351214025993004907e+04,9.408499717712402344e+00,3.824593871831893921e-02,-7.266727685928344727e-01,1.000000000000000000e+00
2.635363089139942895e+05,2.480878852810535464e+05,1.013071801654863521e+05,1.294862807856029540e+05,2.592209743669092131e+05,2.601970060337660834e+05,1.428174566396775190e+05,1.098935323372707644e+05,9.408499717712402344e+00,3.824593871831893921e-02,-7.266727685928344727e-01,2.000000000000000000e+00
2.302269838203230465e+05,2.169716274228852417e+05,8.812430593014917395e+04,1.125419173458271398e+05,2.264982788188659470e+05,2.270516929594508547e+05,1.238922557657372672e+05,9.556773413383468869e+04,9.408499717712402344e+00,3.824593871831893921e-02,-7.266727685928344727e-01,3.000000000000000000e+00
2.147509049271711265e+05,2.023891426803138165e+05,8.157354193225030031e+04,1.043307151250912138e+05,2.112636884827562317e+05,2.116399136441420997e+05,1.148053022311260574e+05,8.853429879224406614e+04,9.408499717712402344e+00,3.824593871831893921e-02,-7.266727685928344727e-01,4.000000000000000000e+00
2.330565517414209025e+05,2.193776312585447449e+05,8.802660745608301659e+04,1.129497599126081623e+05,2.292497131239258742e+05,2.298050735331939650e+05,1.242602696713716141e+05,9.585789568276068894e+04,9.408499717712402344e+00,3.824593871831893921e-02,-7.266727685928344727e-01,5.000000000000000000e+00
2.352297972023359325e+05,2.212226053856073413e+05,8.857959144468946033e+04,1.136267893398894666e+05,2.313551589789514837e+05,2.320475400536631350e+05,1.248183776837847981e+05,9.679628334772592643e+04,9.408499717712402344e+00,3.824593871831893921e-02,-7.266727685928344727e-01,6.000000000000000000e+00
2.204843922665462596e+05,2.072723146344067645e+05,8.303741052529492299e+04,1.057310442438613827e+05,2.167078025834316213e+05,2.173829728509684501e+05,1.160929420358364296e+05,9.069871180240582908e+04,9.408499717712402344e+00,3.824593871831893921e-02,-7.266727685928344727e-01,7.000000000000000000e+00
2.197298156372299418e+05,2.065357159710028791e+05,8.303270401589771791e+04,1.048345907498800516e+05,2.157279621921656653e+05,2.164327436115835153e+05,1.151459355990346812e+05,9.031707544972097094e+04,9.408499717712402344e+00,3.824593871831893921e-02,-7.266727685928344727e-01,8.000000000000000000e+00
2.274316618543977384e+05,2.137985903876140364e+05,8.597186333355322131e+04,1.087053749749295675e+05,2.231468659676831157e+05,2.239611826339973486e+05,1.188672296092718461e+05,9.353373020167890354e+04,9.408499717712402344e+00,3.824593871831893921e-02,-7.266727685928344727e-01,9.000000000000000000e+00
2.237944711685582006e+05,2.104679760125500616e+05,8.402538141877891030e+04,1.072951384007502347e+05,2.195674630951010331e+05,2.204309250674612995e+05,1.162408003847844084e+05,9.214991531601425959e+04,9.408499717712402344e+00,3.824593871831893921e-02,-7.266727685928344727e-01,1.000000000000000000e+01
2.167504065859163529e+05,2.039337872599191905e+05,8.055776980832112895e+04,1.037508164154268452e+05,2.126693226334809733e+05,2.135146703640812193e+05,1.117964389172987721e+05,8.935420633385957626e+04,9.408499717712402344e+00,3.824593871831893921e-02,-7.266727685928344727e-01,1.100000000000000000e+01
2.182736539381514594e+05,2.053834243491661327e+05,8.065922508609901706e+04,1.038869203955613775e+05,2.141364474634726357e+05,2.150068925015188579e+05,1.123712389791290771e+05,9.018485836445426685e+04,9.408499717712402344e+00,3.824593871831893921e-02,-7.266727685928344727e-01,1.200000000000000000e+01
2.202224230781601800e+05,2.072259775114507356e+05,8.122846767402127443e+04,1.043065494748695492e+05,2.160173179666933138e+05,2.169801942090849916e+05,1.131491198407985794e+05,9.123615454522454820e+04,9.408499717712402344e+00,3.824593871831893921e-02,-7.266727685928344727e-01,1.300000000000000000e+01
2.162249074767588754e+05,2.035647237835061387e+05,7.942981835305325512e+04,1.022582254026337905e+05,2.121092387535090384e+05,2.131669079331868561e+05,1.101582250928573194e+05,8.948456759106424579e+04,9.408499717712402344e+00,3.824593871831893921e-02,-7.266727685928344727e-01,1.400000000000000000e+01
2.132374601033474901e+05,2.009012804460804618e+05,7.779397006630673422e+04,1.010430469436400308e+05,2.092343214611714648e+05,2.103475460231740144e+05,1.076962042285377538e+05,8.770809210467166849e+04,9.408499717712402344e+00,3.824593871831893921e-02,-7.266727685928344727e-01,1.500000000000000000e+01
2.138252587627179164e+05,2.015676344887868618e+05,7.755455260455186362e+04,1.015947553851114208e+05,2.098799506509275234e+05,2.110252806830205081e+05,1.077940718084965920e+05,8.756031584474960982e+04,9.408499717712402344e+00,3.824593871831893921e-02,-7.266727685928344727e-01,1.600000000000000000e+01
2.130650678565022536e+05,2.009638895133692131e+05,7.696879138865160348e+04,1.011570236028600484e+05,2.091954095801799849e+05,2.103901650140182464e+05,1.071499200214390439e+05,8.743769554441278160e+04,9.408499717712402344e+00,3.824593871831893921e-02,-7.266727685928344727e-01,1.700000000000000000e+01
2.106541148240122420e+05,1.988464281351724931e+05,7.585887080001125287e+04,9.961611090509731730e+04,2.068857115438594192e+05,2.081507847245139128e+05,1.050436596797575185e+05,8.679648636897151300e+04,9.408499717712402344e+00,3.824593871831893921e-02,-7.266727685928344727e-01,1.800000000000000000e+01
2.090897660333633830e+05,1.974913007653276727e+05,7.516091503275158175e+04,9.873553629374531738e+04,2.054109271761076525e+05,2.067124923024922900e+05,1.036692636544683191e+05,8.613330520867941959e+04,9.408499717712402344e+00,3.824593871831893921e-02,-7.266727685928344727e-01,1.900000000000000000e+01
2.078114705978977145e+05,1.963137090415474668e+05,7.454088893597216520e+04,9.840293895764910849e+04,2.041950193750911858e+05,2.054806918417148700e+05,1.028776908283959783e+05,8.533627641774449148e+04,9.408499717712402344e+00,3.824593871831893921e-02,-7.266727685928344727e-01,2.000000000000000000e+01
2.069020498256025312e+05,1.954648721429719008e+05,7.385319427635216562e+04,9.802471979787608143e+04,2.032758525363048830e+05,2.045634502295160783e+05,1.013072390219713270e+05,8.480236378507417976e+04,9.408499717712402344e+00,3.824593871831893921e-02,-7.266727685928344727e-01,2.100000000000000000e+01
2.066610399557291530e+05,1.952836618931978301e+05,7.349438905284323846e+04,9.752233152000211703e+04,2.029766946090152487e+05,2.043176135826523823e+05,9.942646229891783150e+04,8.474351061778038274e+04,9.408499717712402344e+00,3.824593871831893921e-02,-7.266727685928344727e-01,2.200000000000000000e+01
2.045300312755438499e+05,1.933042911813664832e+05,7.282648922763852170e+04,9.630492292675634963e+04,2.008506819995680125e+05,2.022385131386396242e+05,9.805862985859354376e+04,8.404232353091731784e+04,9.408499717712402344e+00,3.824593871831893921e-02,-7.266727685928344727e-01,2.300000000000000000e+01
2.014372627902839449e+05,1.903763492252104916e+05,7.159339964837608568e+04,9.490208253994185361e+04,1.977596901740020548e+05,1.991882827379273076e+05,9.702623628833385010e+04,8.293889291908266023e+04,9.408499717712402344e+00,3.824593871831893921e-02,-7.266727685928344727e-01,2.400000000000000000e+01
2.021702546677128121e+05,1.910711683972230821e+05,7.097920984465177753e+04,9.496904163746976701e+04,1.983267650500669261e+05,1.998558224028722616e+05,9.616323618537787115e+04,8.324286649953728192e+04,9.408499717712402344e+00,3.824593871831893921e-02,-7.266727685928344727e-01,2.500000000000000000e+01
2.035253728675170569e+05,1.923694662657373119e+05,7.078528832801384851e+04,9.533993858186218131e+04,1.995328645108060737e+05,2.011554235132478934e+05,9.528511534948533517e+04,8.382514991458697477e+04,9.408499717712402344e+00,3.824593871831893921e-02,-7.266727685928344727e-01,2.600000000000000000e+01
1.985550528954978508e+05,1.876721991318873770e+05,6.951882870909277699e+04,9.359804897964217525e+04,1.947142901712063467e+05,1.963022662784774147e+05,9.383175379953152151e+04,8.209039818201922753e+04,9.408499717712402344e+00,3.824593871831893921e-02,-7.266727685928344727e-01,2.700000000000000000e+01
1.943610458096555667e+05,1.837359605406716000e+05,6.855489072977290198e+04,9.221456632778028143e+04,1.906729503712008591e+05,1.922141905096483242e+05,9.219014292305451818e+04,8.051243720215575013e+04,9.408499717712402344e+00,3.824593871831893921e-02,-7.266727685928344727e-01,2.800000000000000000e+01
2.010361808772689255e+05,1.901395209351084486e+05,7.016438751518198114e+04,9.459253516912690247e+04,1.970743624146316433e+05,1.987438483893193479e+05,9.149898657184279000e+04,8.279931035595390131e+04,9.408499717712402344e+00,3.824593871831893921e-02,-7.266727685928344727e-01,2.900000000000000000e+01
2.031859069793928938e+05,1.921914271120374615e+05,7.070572297727159457e+04,9.514597646422800608e+04,1.990459168480797671e+05,2.008235694392031874e+05,9.088583796989571420e+04,8.366853470661363099e+04,9.408499717712402344e+00,3.824593871831893921e-02,-7.266727685928344727e-01,3.000000000000000000e+01
1.760174149513599114e+05,1.662862025211343425e+05,6.412578732660446985e+04,8.521807161705756153e+04,1.727007881442951912e+05,1.741909770283791877e+05,8.804332560327593819e+04,7.437577130971250881e+04,9.408499717712402344e+00,3.824593871831893921e-02,-7.266727685928344727e-01,3.100000000000000000e+01
1.300404265301319247e+05,1.224667015345261607e+05,5.284624259774242091e+04,6.879387874872118118e+04,1.282215334133234428e+05,1.291379776731307211e+05,8.333605477133304521e+04,5.845242444693152356e+04,9.484992027282714844e+00,1.529837548732757568e-01,-7.266727685928344727e-01,3.200000000000000000e+01
1.026444331713988649e+05,9.636649363602694939e+04,4.599050967535747623e+04,5.911804171563690034e+04,1.016965607456749567e+05,1.022751624866020866e+05,7.980641627382917795e+04,4.888795776710975042e+04,9.484992027282714844e+00,1.529837548732757568e-01,-7.266727685928344727e-01,3.300000000000000000e+01
1.046727748803807190e+05,9.830826439303012739e+04,4.636990958238759049e+04,5.978723508656088234e+04,1.035789061682628526e+05,1.042295420743812283e+05,7.876123501056857640e+04,4.955809049806863914e+04,9.484992027282714844e+00,1.529837548732757568e-01,-7.266727685928344727e-01,3.400000000000000000e+01
1.115422376421855151e+05,1.048673229933589901e+05,4.804737046217657189e+04,6.199697669670814503e+04,1.101467173034105945e+05,1.109380796515247202e+05,7.841452782465993369e+04,5.200578719033987727e+04,9.484992027282714844e+00,1.529837548732757568e-01,-7.266727685928344727e-01,3.500000000000000000e+01
1.074340807516904752e+05,1.009759120935740502e+05,4.704373174927067157e+04,6.033428055310167838e+04,1.061469691219986125e+05,1.069057094880245422e+05,7.723888831710818340e+04,5.065140318957890122e+04,9.484992027282714844e+00,1.529837548732757568e-01,-7.266727685928344727e-01,3.600000000000000000e+01
1.022765427449313429e+05,9.608822263641004974e+04,4.567911306397218141e+04,5.849218597076558217e+04,1.011600692789722088e+05,1.018411259440070862e+05,7.565018800528721476e+04,4.879898960773806175e+04,9.484992027282714844e+00,1.529837548732757568e-01,-7.266727685928344727e-01,3.700000000000000000e+01
1.036793324597364408e+05,9.744625340445655456e+04,4.585451357664514217e+04,5.906104570407877327e+04,1.025059980248630891e+05,1.031916467245125095e+05,7.419244924468178942e+04,4.913568662068777485e+04,9.484992027282714844e+00,1.529837548732757568e-01,-7.266727685928344727e-01,3.800000000000000000e+01
1.045298363007192384e+05,9.827751574137243733e+04,4.594514844178700150e+04,5.928982299709921062e+04,1.032986792555009015e+05,1.040017545431532053e+05,7.280640549284197914e+04,4.938556447456128080e+04,9.484992027282714844e+00,1.529837548732757568e-01,-7.266727685928344727e-01,3.900000000000000000e+01
1.011819271524663345e+05,9.511405503871869587e+04,4.509937092836872034e+04,5.786402431083663396e+04,1.000252358874224738e+05,1.007099373768557998e+05,7.173831772088314756e+04,4.832355167154109949e+04,9.484992027282714844e+00,1.529837548732757568e-01,-7.266727685928344727e-01,4.000000000000000000e+01
9.915401632309678826e+04,9.320352794214576716e+04,4.458318929156283411e+04,5.694947157953926944e+04,9.803456083704654884e+04,9.871589122287053033e+04,7.096072580087851384e+04,4.768422724608718272e+04,9.484992027282714844e+00,1.529837548732757568e-01,-7.266727685928344727e-01,4.100000000000000000e+01
9.978960085979058931e+04,9.381539496426978440e+04,4.462372725649394124e+04,5.716199741252444073e+04,9.863333355045790086e+04,9.932618588890114916e+04,6.959272326092582080e+04,4.780812093369822833e+04,9.484992027282714844e+00,1.529837548732757568e-01,-7.266727685928344727e-01,4.200000000000000000e+01
9.883722522734850645e+04,9.291186056059641123e+04,4.419975790026232426e+04,5.687094001693581959e+04,9.770677978594588058e+04,9.837716093208498205e+04,6.759989798344094015e+04,4.732747456057619274e+04,9.484992027282714844e+00,1.529837548732757568e-01,-7.266727685928344727e-01,4.300000000000000000e+01
9.628923029034283536e+04,9.050486341851908946e+04,4.343421381609047239e+04,5.586332974574784021e+04,9.522954129478994582e+04,9.586571467958785070e+04,6.627533029513545625e+04,4.641066601806169638e+04,9.484992027282714844e+00,1.529837548732757568e-01,-7.266727685928344727e-01,4.400000000000000000e+01
9.530030685571405047e+04,8.959374683379294584e+04,4.315835152266569639e+04,5.525042892758313974e+04,9.424070767465904646e+04,9.488129222154765739e+04,6.571321623752893356e+04,4.615022772134716070e+04,9.484992027282714844e+00,1.529837548732757568e-01,-7.266727685928344727e-01,4.500000000000000000e+01
9.520638940132757125e+04,8.952323564671858912e+04,4.311843977789613564e+04,5.499771990035282943e+04,9.411210135314930812e+04,9.477230948911850282e+04,6.447293792756421317e+04,4.615656096041345882e+04,9.484992027282714844e+00,1.529837548732757568e-01,-7.266727685928344727e-01,4.600000000000000000e+01
9.380218148204049794e+04,8.818723184781959571e+04,4.266026003144683636e+04,5.445741179909858329e+04,9.273033178457147733e+04,9.337926665745049831e+04,6.260306782768086850e+04,4.556425346209451527e+04,9.484992027282714844e+00,1.529837548732757568e-01,-7.266727685928344727e-01,4.700000000000000000e+01
9.196667444422162953e+04,8.643793657802123926e+04,4.201896165731399378e+04,5.383045839090916706e+04,9.093743794928447460e+04,9.155943840456110775e+04,6.148989093407809560e+04,4.476636736775450117e+04,9.484992027282714844e+00,1.529837548732757568e-01,-7.266727685928344727e-01,4.800000000000000000e+01
9.111474152524005331e+04,8.563485510402056389e+04,4.166207661451768217e+04,5.341402285242266953e+04,9.007978117861998908e+04,9.069681456663126301e+04,6.049345032337591692e+04,4.441186023867578479e+04,9.484992027282714844e+00,1.529837548732757568e-01,-7.266727685928344727e-01,4.900000000000000000e+01
9.043791535982285859e+04,8.500883584618252644e+04,4.144656706961895543e+04,5.290558574937302910e+04,8.938039181160309818e+04,9.001023821849958040e+04,5.825626839949777786e+04,4.423884717258296587e+04,9.484992027282714844e+00,1.529837548732757568e-01,-7.266727685928344727e-01,5.000000000000000000e+01
8.914052350458381989e+04,8.379899748063445440e+04,4.109433679528099310e+04,5.221975967331413995e+04,8.809804833981214324e+04,8.872983618664545065e+04,5.708046331856762845e+04,4.382134067151218915e+04,9.484992027282714844e+00,1.529837548732757568e-01,-7.266727685928344727e-01,5.100000000000000000e+01
8.782033375727577368e+04,8.256795325838691497e+04,4.064562793607952335e+04,5.170301447385102074e+04,8.681724407893772877e+04,8.742971940127179550e+04,6.038784024529543240e+04,4.325268848775248625e+04,9.484992027282714844e+00,1.529837548732757568e-01,-7.266727685928344727e-01,5.200000000000000000e+01
8.681690246910974383e+04,8.163248877249224461e+04,4.019980186084796151e+04,5.136101658556405164e+04,8.584055799871413910e+04,8.642731843933006166e+04,6.613122455028112745e+04,4.273241059033625061e+04,9.523238182067871094e+00,1.529837548732757568e-01,-6.501809358596801758e-01,5.300000000000000000e+01
8.575362142672984919e+04,8.063949282620915619e+04,3.978340589990461012e+04,5.085716318512154248e+04,8.478675211338349618e+04,8.536333894113519636e+04,6.870439476044775802e+04,4.229566017042295425e+04,9.523238182067871094e+00,1.529837548732757568e-01,-6.501809358596801758e-01,5.400000000000000000e+01
8.459145116772328038e+04,7.956397928862848494e+04,3.944321904821635690e+04,5.017031628319330775e+04,8.363229237794996880e+04,8.421887948529093410e+04,6.709860492556067766e+04,4.194852606904425193e+04,9.523238182067871094e+00,1.529837548732757568e-01,-6.501809358596801758e-01,5.500000000000000000e+01
8.356021979178166657e+04,7.862040734419075307e+04,3.914908838522090809e+04,4.957687067682341876e+04,8.261709667998175428e+04,8.321246242418588372e+04,6.524824880806405417e+04,4.161668977022269246e+04,9.523238182067871094e+00,1.529837548732757568e-01,-6.501809358596801758e-01,5.600000000000000000e+01
8.254331773670387338e+04,7.767684648202505196e+04,3.876232441441694391e+04,4.916002057764917117e+04,8.162341325526250876e+04,8.220495041991348262e+04,6.490453911328513641e+04,4.114541392806718068e+04,9.523238182067871094e+00,1.529837548732757568e-01,-6.501809358596801758e-01,5.700000000000000000e+01
8.136387818513282400e+04,7.655759273154141556e+04,3.826078900393887307e+04,4.874175087536420324e+04,8.046425095435505500e+04,8.101859004451043438e+04,6.408831246134966204e+04,4.055577604587566748e+04,9.523238182067871094e+00,1.529837548732757568e-01,-6.501809358596801758e-01,5.800000000000000000e+01
8.019063234608646599e+04,7.544212204194811056e+04,3.780774647144028859e+04,4.818797649055975489e+04,7.929829412253730698e+04,7.984048302340030205e+04,6.211846639121350017e+04,4.006986716315950616e+04,9.523238182067871094e+00,1.529837548732757568e-01,-6.501809358596801758e-01,5.900000000000000000e+01
7.919999571135098813e+04,7.451710606648513931e+04,3.749805464859231870e+04,4.755446393628189981e+04,7.830716819500309066e+04,7.886023620096230297e+04,6.073319057365088520e+04,3.976843457829039835e+04,9.523238182067871094e+00,1.529837548732757568e-01,-6.501809358596801758e-01,6.000000000000000000e+01
7.821038310008542612e+04,7.360340994541237887e+04,3.719916408496494842e+04,4.696586950738699670e+04,7.732968128376993991e+04,7.789286562291978044e+04,6.039300169807178463e+04,3.943925307702573627e+04,9.523238182067871094e+00,1.529837548732757568e-01,-6.501809358596801758e-01,6.100000000000000000e+01
7.711985807370951807e+04,7.258370872867158323e+04,3.678345653278891405e+04,4.651145299432164029e+04,7.626692866357708408e+04,7.681923824588928255e+04,5.972024056953008403e+04,3.893518257911791443e+04,9.523238182067871094e+00,1.529837548732757568e-01,-6.501809358596801758e-01,6.200000000000000000e+01
7.597620194383450144e+04,7.149599405736445624e+04,3.628663058262650156e+04,4.609557995902085531e+04,7.514435447540124005e+04,7.567466069202928338e+04,5.833257055064665474e+04,3.835143824802119343e+04,9.523238182067871094e+00,1.529837548732757568e-01,-6.501809358596801758e-01,6.300000000000000000e+01
7.491455808638851158e+04,7.048205120183272811e+04,3.585669410892820451e+04,4.556973226129544491e+04,7.407531876462994842e+04,7.459811858465915429e+04,5.724058382993138366e+04,3.789364194850598869e+04,9.523238182067871094e+00,1.529837548732757568e-01,-6.501809358596801758e-01,6.400000000000000000e+01
7.396799821188636997e+04,6.958987429865235754e+04,3.554898011683277582e+04,4.493734099069539661e+04,7.310610059135164192e+04,7.364037700094417960e+04,5.676974767646662804e+04,3.759322002957217046e+04,9.523238182067871094e+00,1.529837548732757568e-01,-6.501809358596801758e-01,6.500000000000000000e+01
7.301848493660877284e+04,6.870714270264818333e+04,3.525053452193638805e+04,4.434919525845917087e+04,7.215396490801165055e+04,7.269494304126995848e+04,5.615930066356950556e+04,3.726455737546915043e+04,9.523238182067871094e+00,1.529837548732757568e-01,-6.501809358596801758e-01,6.600000000000000000e+01
7.196012697857762396e+04,6.771739210551301949e+04,3.483661390947921609e+04,4.389567354699333373e+04,7.112123561591874750e+04,7.164642904993931006e+04,5.499547961715998827e+04,3.676332382300135941e+04,9.523238182067871094e+00,1.529837548732757568e-01,-6.501809358596801758e-01,6.700000000000000000e+01
7.084460605650382058e+04,6.665974708971005748e+04,3.434235087053254392e+04,4.348297025645821122e+04,7.002946642094518756e+04,7.053084688265617297e+04,5.378724587347843772e+04,3.618637207001610659e+04,9.523238182067871094e+00,1.529837548732757568e-01,-6.501809358596801758e-01,6.800000000000000000e+01
6.980723714188006124e+04,6.567299539992735663e+04,3.391345176922786050e+04,4.296375436075800098e+04,6.898969414210342802e+04,6.948583568344595551e+04,5.306322192967891897e+04,3.573613762347588636e+04,9.523238182067871094e+00,1.529837548732757568e-01,-6.501809358596801758e-01,6.900000000000000000e+01
6.888109307347846334e+04,6.480522448670242011e+04,3.360531820143260848e+04,4.234071180540179193e+04,6.804880438294469786e+04,6.856006022056596703e+04,5.250938475171205937e+04,3.544021379043994239e+04,9.523238182067871094e+00,1.529837548732757568e-01,-6.501809358596801758e-01,7.000000000000000000e+01
6.795520723485414055e+04,6.395033594748329051e+04,3.330783846172823542e+04,4.176204219246743014e+04,6.712405882646747341e+04,6.764617433631632593e+04,5.151911027616945648e+04,3.511462687314904906e+04,9.523238182067871094e+00,1.529837548732757568e-01,-6.501809358596801758e-01,7.100000000000000000e+01
6.692880511601289618e+04,6.299493328271591599e+04,3.289825631987159431e+04,4.131614125850459095e+04,6.611804203169389802e+04,6.662981017602456268e+04,5.036177538379400357e+04,3.461893601853138534e+04,9.523238182067871094e+00,1.529837548732757568e-01,-6.501809358596801758e-01,7.200000000000000000e+01
6.584851105316323810e+04,6.197255380130665435e+04,3.241002394112238107e+04,4.090966505095568573e+04,6.505482724871292885e+04,6.554714308504606015e+04,4.968592228223582060e+04,3.404888998090269888e+04,9.523238182067871094e+00,1.529837548732757568e-01,-6.501809358596801758e-01,7.300000000000000000e+01
6.484351458372694469e+04,6.101490539152848942e+04,3.198547041049233667e+04,4.039780508198347525e+04,6.404690873345274304e+04,6.453372736333726061e+04,4.900303574616356491e+04,3.360271358346696070e+04,9.523238182067871094e+00,1.529837548732757568e-01,-6.501809358596801758e-01,7.400000000000000000e+01
6.394862142508843681e+04,6.016900168399965332e+04,3.167971477778398912e+04,3.978529038210825820e+04,6.313906758047096810e+04,6.363722214481172705e+04,4.754583067141723586e+04,3.330820108106339467e+04,9.523238182067871094e+00,1.529837548732757568e-01,-6.501809358596801758e-01,7.500000000000000000e+01
6.305648583300584869e+04,5.933267861832022027e+04,3.138597305454825982e+04,3.921825777133279189e+04,6.224691861693560350e+04,6.275170729347416636e+04,4.655435313277321256e+04,3.298574186550549348e+04,9.523238182067871094e+00,1.529837548732757568e-01,-6.501809358596801758e-01,7.600000000000000000e+01
6.206478888060694590e+04,5.839766762204658153e+04,3.098298493126509129e+04,3.877913829265490494e+04,6.127445538502462296e+04,6.176305759006467997e+04,4.803273157604569860e+04,3.249648509933795867e+04,9.523238182067871094e+00,1.529837548732757568e-01,-6.501809358596801758e-01,7.700000000000000000e+01
6.101652545912269125e+04,5.740179652960274689e+04,3.050058360639260354e+04,3.837234309594141087e+04,6.024599537606837112e+04,6.070618228416432976e+04,5.109721198986794479e+04,3.193346855311425679e+04,9.446745872497558594e+00,1.147378161549568176e-01,-6.119350194931030273e-01,7.800000000000000000e+01
6.004017018125762115e+04,5.647801126733869751e+04,3.007702661610159703e+04,3.785948123604714783e+04,5.927092810845299391e+04,5.971838953478445910e+04,5.260053139354911400e+04,3.149278808685040713e+04,9.446745872497558594e+00,1.147378161549568176e-01,-6.119350194931030273e-01,7.900000000000000000e+01
5.917275781788927998e+04,5.567004100226098672e+04,2.976852037994353304e+04,3.725250673528763582e+04,5.839255792804716475e+04,5.885128020665607619e+04,5.161553026699547627e+04,3.120302206016524724e+04,9.446745872497558594e+00,1.147378161549568176e-01,-6.119350194931030273e-01,8.000000000000000000e+01
5.830965349697195779e+04,5.487058666174767859e+04,2.947258415330814023e+04,3.669597546244897239e+04,5.752944899451306264e+04,5.799909874635064625e+04,5.017288484932711435e+04,3.088619215933447776e+04,9.446745872497558594e+00,1.147378161549568176e-01,-6.119350194931030273e-01,8.100000000000000000e+01
5.734906007694621076e+04,5.396893811802827986e+04,2.907030515380684665e+04,3.626635222933280602e+04,5.658821365367721592e+04,5.704451162196471705e+04,4.952142127007246745e+04,3.040432677369804151e+04,9.446745872497558594e+00,1.147378161549568176e-01,-6.119350194931030273e-01,8.200000000000000000e+01
5.633161393603176839e+04,5.300384653814481862e+04,2.859182310623657395e+04,3.586775973250139214e+04,5.559204507689866296e+04,5.602152644930719543e+04,4.881490514890819759e+04,2.984999306084315322e+04,9.446745872497558594e+00,1.147378161549568176e-01,-6.119350194931030273e-01,8.300000000000000000e+01
5.538438417536589986e+04,5.210914311015161366e+04,2.817595007971838277e+04,3.536566477029370435e+04,5.464891727438731323e+04,5.506814875522471993e+04,4.764206464854823571e+04,2.941709243082880494e+04,9.446745872497558594e+00,1.147378161549568176e-01,-6.119350194931030273e-01,8.400000000000000000e+01
5.454730217239407648e+04,5.132752480803227809e+04,2.787818926390173147e+04,3.477177862452606496e+04,5.380337214142947778e+04,5.423428310777182924e+04,4.678094938282197836e+04,2.913284683375054374e+04,9.446745872497558594e+00,1.147378161549568176e-01,-6.119350194931030273e-01,8.500000000000000000e+01
5.371925242410341161e+04,5.055125021658619517e+04,2.759283666508503666e+04,3.422675160262474674e+04,5.297523255962606345e+04,5.341362162369269936e+04,4.631522478769907320e+04,2.882243213749793722e+04,9.446745872497558594e+00,1.147378161549568176e-01,-6.119350194931030273e-01,8.600000000000000000e+01
5.279734110991160560e+04,4.967243736340557371e+04,2.719912123252201491e+04,3.380610485900493222e+04,5.207012030507618329e+04,5.249351744507459080e+04,4.545310556505371642e+04,2.835281770589835651e+04,9.446745872497558594e+00,1.147378161549568176e-01,-6.119350194931030273e-01,8.700000000000000000e+01
5.181806434993627045e+04,4.873417839161498705e+04,2.672883489935243779e+04,3.341682914671083563e+04,5.110953162378017441e+04,5.151095092844262399e+04,4.420707409040886705e+04,2.781586870207621541e+04,9.446745872497558594e+00,1.147378161549568176e-01,-6.119350194931030273e-01,8.800000000000000000e+01
5.090571512406259717e+04,4.787253296043464798e+04,2.632126501846843530e+04,3.292665561459293531e+04,5.020027013176970650e+04,5.059828245884994976e+04,4.332191621763725561e+04,2.739885473819722029e+04,9.446745872497558594e+00,1.147378161549568176e-01,-6.119350194931030273e-01,8.900000000000000000e+01
5.009962801373764523e+04,4.712962055035409139e+04,2.602928170190816309e+04,3.234713853523801663e+04,4.938624626584660291e+04,4.979905797601260565e+04,4.280275393772035750e+04,2.712490480811530506e+04,9.446745872497558594e+00,1.147378161549568176e-01,-6.119350194931030273e-01,9.000000000000000000e+01
4.930001500255138671e+04,4.639516148664968932e+04,2.574762178957501237e+04,3.181810013244164656e+04,4.858843764720739273e+04,4.901003740512134391e+04,4.205852427062601782e+04,2.682201393335652392e+04,9.446745872497558594e+00,1.147378161549568176e-01,-6.119350194931030273e-01,9.100000000000000000e+01
4.840742543617339106e+04,4.555622855401084962e+04,2.536074032539117616e+04,3.141513911310579351e+04,4.771551600643506390e+04,4.812548627832491911e+04,4.105027673468288413e+04,2.636153785533053451e+04,9.446745872497558594e+00,1.147378161549568176e-01,-6.119350194931030273e-01,9.200000000000000000e+01
4.746123058620785014e+04,4.464963756276079221e+04,2.490192274353264656e+04,3.104568420529930881e+04,4.679065723334092763e+04,4.718228257903795020e+04,4.011944625475702196e+04,2.583603255687320780e+04,9.446745872497558594e+00,1.147378161549568176e-01,-6.119350194931030273e-01,9.300000000000000000e+01
4.658462429610654362e+04,4.380991661107317486e+04,2.450504009742537164e+04,3.057626099435153446e+04,4.591905805670059635e+04,4.630816368035197229e+04,3.927545461568882456e+04,2.543146592305644299e+04,9.446745872497558594e+00,1.147378161549568176e-01,-6.119350194931030273e-01,9.400000000000000000e+01
4.581381160945894953e+04,4.308646459761442384e+04,2.421973793483187910e+04,3.001528117483924871e+04,4.514209427268879517e+04,4.554597260258778988e+04,3.847902919796550850e+04,2.517073597130463531e+04,9.446745872497558594e+00,1.147378161549568176e-01,-6.119350194931030273e-01,9.500000000000000000e+01
4.504816375297115883e+04,4.237959640529665921e+04,2.394427204494192847e+04,2.950062079849854490e+04,4.437987724634409096e+04,4.479412033783810330e+04,3.785024817547565908e+04,2.488185464228667479e+04,9.446745872497558594e+00,1.147378161549568176e-01,-6.119350194931030273e-01,9.600000000000000000e+01
4.418940050999917003e+04,4.158062906420919899e+04,2.356580468098393976e+04,2.910935056043899021e+04,4.354187897052106564e+04,4.394523523439222481e+04,3.713415163233318162e+04,2.443466862562049209e+04,9.446745872497558594e+00,1.147378161549568176e-01,-6.119350194931030273e-01,9.700000000000000000e+01
4.327750762392744946e+04,4.072205645786173409e+04,2.311586434553675281e+04,2.875147061980393482e+04,4.265262681972621067e+04,4.303376179153052362e+04,3.598803633713648742e+04,2.391929444912458712e+04,9.446745872497558594e+00,1.147378161549568176e-01,-6.119350194931030273e-01,9.800000000000000000e+01
4.243644232808123343e+04,3.993122827000312100e+04,2.272832701434460614e+04,2.829454781032061510e+04,4.181762896907032700e+04,4.218872769575184066e+04,3.491393145380800706e+04,2.352040751538805853e+04,9.446745872497558594e+00,1.147378161549568176e-01,-6.119350194931030273e-01,9.900000000000000000e+01
4.170454669434235984e+04,3.925223454309855151e+04,2.245601061203513382e+04,2.774702392013065401e+04,4.107685419813488988e+04,4.145545297603590734e+04,3.453640823313510919e+04,2.326250191498473578e+04,9.446745872497558594e+00,1.147378161549568176e-01,-6.119350194931030273e-01,1.000000000000000000e+02
4.098267411015449761e+04,3.858280390566177084e+04,2.219733101852640539e+04,2.724598079833655356e+04,4.034987802943402494e+04,4.073287502403307735e+04,3.412472418267783360e+04,2.297785434911324774e+04,9.446745872497558594e+00,1.147378161549568176e-01,-6.119350194931030273e-01,1.010000000000000000e+02
4.017122195643005398e+04,3.781467718587807030e+04,2.183643254903644993e+04,2.686641378937823902e+04,3.954857278262980981e+04,3.991448244690334104e+04,3.271959433951533720e+04,2.253992811449532019e+04,9.446745872497558594e+00,1.147378161549568176e-01,-6.119350194931030273e-01,1.020000000000000000e+02
3.930661627838088316e+04,3.698345026499695086e+04,2.140386363462924055e+04,2.651806854426398786e+04,3.869908776126285375e+04,3.903671756384858600e+04,3.146030118267790385e+04,2.203844204820638697e+04,9.446745872497558594e+00,1.147378161549568176e-01,-6.119350194931030273e-01,1.030000000000000000e+02
3.850877073708175885e+04,3.621981041318798088e+04,2.103311813444078871e+04,2.607256216366329681e+04,3.790409775042621186e+04,3.822829070720289019e+04,3.234167379450167937e+04,2.165485447767048754e+04,9.446745872497558594e+00,1.147378161549568176e-01,-6.119350194931030273e-01,1.040000000000000000e+02
3.781374961138163053e+04,3.556970891154780838e+04,2.077360930009060758e+04,2.554145368424454864e+04,3.720031879293706152e+04,3.753232518214375887e+04,3.473178043207149312e+04,2.141179638798494125e+04,9.446745872497558594e+00,7.649187743663787842e-02,-6.501809358596801758e-01,1.050000000000000000e+02
3.712404065537435235e+04,3.493206245067798591e+04,2.052191819564439720e+04,2.505845544083447021e+04,3.650858532591848780e+04,3.684814809751731809e+04,3.583118181696865213e+04,2.114213601769464003e+04,9.446745872497558594e+00,7.649187743663787842e-02,-6.501809358596801758e-01,1.060000000000000000e+02
3.634412830928118638e+04,3.419892587306270434e+04,2.016612375589732983e+04,2.469370424500363879e+04,3.574333662516069307e+04,3.607117354066502594e+04,3.472129411950067151e+04,2.071990331159595371e+04,9.446745872497558594e+00,7.649187743663787842e-02,-6.501809358596801758e-01,1.070000000000000000e+02
3.551239710530384764e+04,3.340364905906456261e+04,1.974035691136527021e+04,2.435785165975243945e+04,3.493015409369899135e+04,3.523604896578779153e+04,3.322745822721780860e+04,2.023405513827995310e+04,9.446745872497558594e+00,7.649187743663787842e-02,-6.501809358596801758e-01,1.080000000000000000e+02
3.474765041856600146e+04,3.267341046627407195e+04,1.937638014426062000e+04,2.392561862289863711e+04,3.417094842850047280e+04,3.446745530820416025e+04,3.263864547971368302e+04,1.986542195339586760e+04,9.446745872497558594e+00,7.649187743663787842e-02,-6.501809358596801758e-01,1.090000000000000000e+02
3.408577649717019813e+04,3.205327158740911545e+04,1.912244053733256078e+04,2.340750138502030677e+04,3.350450788507515244e+04,3.380868746487911267e+04,3.223642027586689073e+04,1.963734559242779505e+04,9.446745872497558594e+00,7.649187743663787842e-02,-6.501809358596801758e-01,1.100000000000000000e+02
3.343170416041708813e+04,3.144476143928890087e+04,1.887881622856953982e+04,2.293597441597057332e+04,3.285263533775496762e+04,3.316294335188165860e+04,3.140867117678827344e+04,1.938391684501222335e+04,9.446745872497558594e+00,7.649187743663787842e-02,-6.501809358596801758e-01,1.110000000000000000e+02
3.269117316467939600e+04,3.074351537067642130e+04,1.853571769107596265e+04,2.258540363533573691e+04,3.212664732350055419e+04,3.242654718501048774e+04,3.074134822938462821e+04,1.897895771200791205e+04,9.446745872497558594e+00,7.649187743663787842e-02,-6.501809358596801758e-01,1.120000000000000000e+02
3.189960167890552111e+04,2.998516367639290547e+04,1.812319696364636911e+04,2.227069109278237374e+04,3.134903937701146788e+04,3.163115445736562833e+04,3.053495804847218096e+04,1.850894011154414329e+04,9.446745872497558594e+00,7.649187743663787842e-02,-6.501809358596801758e-01,1.130000000000000000e+02
3.117115545472170197e+04,2.929635846439842862e+04,1.776884458796057879e+04,2.186387407738221373e+04,3.062236899642315984e+04,3.089994017698919924e+04,3.017246266078442568e+04,1.815214102624391671e+04,9.446745872497558594e+00,7.649187743663787842e-02,-6.501809358596801758e-01,1.140000000000000000e+02
3.054028530959928321e+04,2.871859119031879527e+04,1.752265750828027012e+04,2.137024092060328985e+04,2.998793821304397716e+04,3.027782274814033735e+04,2.936586116610238241e+04,1.793301926178917347e+04,9.446745872497558594e+00,7.649187743663787842e-02,-6.501809358596801758e-01,1.150000000000000000e+02
2.991513581217241153e+04,2.815028845564016592e+04,1.728924212698544943e+04,2.092111162933796732e+04,2.936967199398740559e+04,2.966923880830275448e+04,2.861724813025694675e+04,1.769031453324557151e+04,9.446745872497558594e+00,7.649187743663787842e-02,-6.501809358596801758e-01,1.160000000000000000e+02
2.920613972498045041e+04,2.748808494522999899e+04,1.695996554726723116e+04,2.059106639339927642e+04,2.868041615816739068e+04,2.897028392328134214e+04,2.824107863171174904e+04,1.730093303520773043e+04,9.446745872497558594e+00,7.649187743663787842e-02,-6.501809358596801758e-01,1.170000000000000000e+02
2.845083010686284979e+04,2.676957850502421934e+04,1.656286456206110597e+04,2.029341770545050531e+04,2.794251946183131804e+04,2.821285623566045251e+04,2.794655755497422433e+04,1.684961729158497837e+04,9.446745872497558594e+00,7.649187743663787842e-02,-6.501809358596801758e-01,1.180000000000000000e+02
2.776203293998378649e+04,2.611900084545169375e+04,1.622374791604965139e+04,1.990114164758018887e+04,2.725611242373377536e+04,2.752006810162112743e+04,2.744096059896110455e+04,1.651092193193173807e+04,9.446745872497558594e+00,7.649187743663787842e-02,-6.501809358596801758e-01,1.190000000000000000e+02
2.717128489953077224e+04,2.557381248999153468e+04,1.599267697494670210e+04,1.942405152871998143e+04,2.666042400093926699e+04,2.693445561350436765e+04,2.677857362579633627e+04,1.630745147352633649e+04,9.446745872497558594e+00,7.649187743663787842e-02,-6.501809358596801758e-01,1.200000000000000000e+02
2.658422486800430852e+04,2.503387779461146420e+04,1.577527983270284312e+04,1.899400877436289738e+04,2.607992406027123798e+04,2.635857834069836827e+04,2.614730241759877026e+04,1.607821280157237379e+04,9.446745872497558594e+00,7.649187743663787842e-02,-6.501809358596801758e-01,1.210000000000000000e+02
2.591101133673907316e+04,2.440137621165380915e+04,1.546338959912935752e+04,1.868049118853273467e+04,2.542878005569759262e+04,2.569139264322221425e+04,2.568293254370055365e+04,1.570134259809198193e+04,9.446745872497558594e+00,7.649187743663787842e-02,-6.501809358596801758e-01,1.220000000000000000e+02
2.519208894803903968e+04,2.371574887075867446e+04,1.508400839927968264e+04,1.839542617065655941e+04,2.472873730319561218e+04,2.496950722606019553e+04,2.537104380338152623e+04,1.526296535399455752e+04,9.446745872497558594e+00,7.649187743663787842e-02,-6.501809358596801758e-01,1.230000000000000000e+02
2.454347235119134712e+04,2.309840752319076273e+04,1.476049825122673792e+04,1.801730374719193060e+04,2.407807334889223421e+04,2.431602239787239159e+04,2.498406222842773059e+04,1.493767474286323340e+04,9.446745872497558594e+00,7.649187743663787842e-02,-6.501809358596801758e-01,1.240000000000000000e+02
2.399581878487548965e+04,2.258584044073326004e+04,1.454075220489559433e+04,1.755890843990501162e+04,2.351572385221535660e+04,2.376959865583005740e+04,2.434532870095931139e+04,1.474671505705748132e+04,9.446745872497558594e+00,7.649187743663787842e-02,-6.501809358596801758e-01,1.250000000000000000e+02
2.345115861265583226e+04,2.208068651298221812e+04,1.433132642207468052e+04,1.714816446261095552e+04,2.296847973468655618e+04,2.323168340746095055e+04,2.365625441307047367e+04,1.452927234946759381e+04,9.446745872497558594e+00,7.649187743663787842e-02,-6.501809358596801758e-01,1.260000000000000000e+02
2.281840681317032795e+04,2.148608536492300482e+04,1.402848851771927912e+04,1.685166350549236085e+04,2.235333943381599602e+04,2.260327678155875037e+04,2.324113632115970540e+04,1.416595357565406812e+04,9.446745872497558594e+00,7.649187743663787842e-02,-6.501809358596801758e-01,1.270000000000000000e+02
2.213873534139446565e+04,2.083765445096376425e+04,1.366266386761253307e+04,1.658366447469810737e+04,2.169264835024453714e+04,2.192049198805830019e+04,2.301435302903701813e+04,1.374378801707116145e+04,9.446745872497558594e+00,7.649187743663787842e-02,-6.501809358596801758e-01,1.280000000000000000e+02
2.152700215550073335e+04,2.025284915117271157e+04,1.335538604963232501e+04,1.622392269265685354e+04,2.108319750325562200e+04,2.130338037026857637e+04,2.259331935132684885e+04,1.343544411422021585e+04,9.446745872497558594e+00,7.649187743663787842e-02,-6.501809358596801758e-01,1.290000000000000000e+02
2.101301874411612516e+04,1.976901381887047683e+04,1.315026749744199878e+04,1.578268572352159208e+04,2.056247407553843368e+04,2.079079370769163506e+04,2.192487428225892654e+04,1.326145980066868651e+04,9.446745872497558594e+00,7.649187743663787842e-02,-6.501809358596801758e-01,1.300000000000000000e+02
2.050224899521405314e+04,1.929275224837071801e+04,1.295275788307106814e+04,1.538703483357541336e+04,2.005630186368964496e+04,2.028762193663991638e+04,2.134572659683720121e+04,1.306260105192668561e+04,9.446745872497558594e+00,7.649187743663787842e-02,-6.501809358596801758e-01,1.310000000000000000e+02
1.990654684072089731e+04,1.872971847674296077e+04,1.266072535856095055e+04,1.510632338253681883e+04,1.948048207738486963e+04,1.969579660708030133e+04,2.099218074002259164e+04,1.271901246830142009e+04,9.446745872497558594e+00,7.649187743663787842e-02,-6.501809358596801758e-01,1.320000000000000000e+02
1.926338246258945583e+04,1.811590061798792158e+04,1.230503794719924554e+04,1.485679280728026788e+04,1.885678452764114991e+04,1.904949284862113564e+04,2.064360676387495187e+04,1.231441854665432220e+04,9.446745872497558594e+00,7.649187743663787842e-02,-6.501809358596801758e-01,1.330000000000000000e+02
1.868297366998532380e+04,1.756892925994808320e+04,1.200755263893119081e+04,1.451811332793715519e+04,1.828257711294407636e+04,1.846859647945178585e+04,2.022720667525003228e+04,1.201996578791846878e+04,9.446745872497558594e+00,7.649187743663787842e-02,-6.501809358596801758e-01,1.340000000000000000e+02
1.819843137657042098e+04,1.712576262824778314e+04,1.181454072480432660e+04,1.410040359592203640e+04,1.779556783322877163e+04,1.799332696211014991e+04,1.997258573405289644e+04,1.185802008052167184e+04,9.446745872497558594e+00,7.649187743663787842e-02,-6.501809358596801758e-01,1.350000000000000000e+02
1.772232245405468711e+04,1.669089204209319360e+04,1.163314365454665312e+04,1.372946052477052763e+04,1.732157537357498222e+04,1.752796312575047341e+04,1.996148412505330634e+04,1.167156328400381972e+04,9.484992027282714844e+00,3.824593871831893921e-02,-6.119350194931030273e-01,1.360000000000000000e+02
1.716735061543199481e+04,1.616784561719422527e+04,1.135864780839790001e+04,1.347101680501316332e+04,1.677840719069982879e+04,1.697301389019374983e+04,1.993141054630157305e+04,1.134198014815905844e+04,9.484992027282714844e+00,3.824593871831893921e-02,-6.119350194931030273e-01,1.370000000000000000e+02
1.656641457033978077e+04,1.559206123944375940e+04,1.101909463515366224e+04,1.323912161233713414e+04,1.619040190076481485e+04,1.636285645119068795e+04,1.966430008033211925e+04,1.095329110728068918e+04,9.484992027282714844e+00,3.824593871831893921e-02,-6.119350194931030273e-01,1.380000000000000000e+02
1.602731125095245079e+04,1.508032024677970730e+04,1.073711750499258414e+04,1.291529572507418015e+04,1.565384719754212711e+04,1.581728056457392813e+04,1.920704722362201937e+04,1.067475767411255401e+04,9.484992027282714844e+00,3.824593871831893921e-02,-6.119350194931030273e-01,1.390000000000000000e+02
1.558322281309743630e+04,1.466803023600129018e+04,1.055994769926214758e+04,1.251213283068200872e+04,1.520305683660344948e+04,1.537558494113880806e+04,1.867157686595598352e+04,1.052611672173538136e+04,9.484992027282714844e+00,3.824593871831893921e-02,-6.119350194931030273e-01,1.400000000000000000e+02
1.514516693549118099e+04,1.426143716262263479e+04,1.039333084973533914e+04,1.215586578388345515e+04,1.476351757576338423e+04,1.494401188195440227e+04,1.814425048446071742e+04,1.035152002389968766e+04,9.484992027282714844e+00,3.824593871831893921e-02,-6.119350194931030273e-01,1.410000000000000000e+02
1.462410825448960168e+04,1.376988095814517874e+04,1.013257594441289257e+04,1.191312103654969360e+04,1.425524880041946017e+04,1.442691809538548296e+04,1.775604199692155453e+04,1.003660976914314961e+04,9.484992027282714844e+00,3.824593871831893921e-02,-6.119350194931030273e-01,1.420000000000000000e+02
1.405466220240228722e+04,1.323201369410141706e+04,9.807948416192426521e+03,1.170025138119590156e+04,1.370245652378464001e+04,1.385793779311428443e+04,1.752677902913346043e+04,9.666248686000049929e+03,9.484992027282714844e+00,3.824593871831893921e-02,-6.119350194931030273e-01,1.430000000000000000e+02
1.354792510115491314e+04,1.276098815660116270e+04,9.541460696604417535e+03,1.139884738983512034e+04,1.319970174869291441e+04,1.335201446181071879e+04,1.722789530941377961e+04,9.405978952126150034e+03,9.484992027282714844e+00,3.824593871831893921e-02,-6.119350194931030273e-01,1.440000000000000000e+02
1.313810364188076710e+04,1.238682823459171595e+04,9.377311489981446357e+03,1.101803105158634935e+04,1.278226269980409234e+04,1.294717994437983361e+04,1.668990759593823168e+04,9.273493706211351309e+03,9.484992027282714844e+00,3.824593871831893921e-02,-6.119350194931030273e-01,1.450000000000000000e+02
1.273551218474454618e+04,1.201429263048995563e+04,9.222495065824898120e+03,1.068103343749625128e+04,1.237788002952686475e+04,1.255260999262305995e+04,1.611186101375770704e+04,9.115078030297281657e+03,9.484992027282714844e+00,3.824593871831893921e-02,-6.119350194931030273e-01,1.460000000000000000e+02
1.225098428433451772e+04,1.155347503954746753e+04,8.977005640240144203e+03,1.045494780052449096e+04,1.190593357933096195e+04,1.207297757059162723e+04,1.577958575631536041e+04,8.818125126198112412e+03,9.484992027282714844e+00,3.824593871831893921e-02,-6.119350194931030273e-01,1.470000000000000000e+02
1.171899281509099274e+04,1.104344310798208426e+04,8.670948632304982311e+03,1.025832902564122560e+04,1.138834826956552206e+04,1.153898037174714045e+04,1.561812717742533823e+04,8.465966181140622211e+03,9.484992027282714844e+00,3.824593871831893921e-02,-6.119350194931030273e-01,1.480000000000000000e+02
1.124925500754975292e+04,1.059944303918925289e+04,8.421144774550899456e+03,9.973913095086976682e+03,1.091939249762655163e+04,1.106488617091993365e+04,1.531091291924376128e+04,8.221759541473687932e+03,9.484992027282714844e+00,3.824593871831893921e-02,-6.119350194931030273e-01,1.490000000000000000e+02
1.087487143926388671e+04,1.025551906686295843e+04,8.269914583871337527e+03,9.610393802590624546e+03,1.053566953121757979e+04,1.069052378715918167e+04,1.477240335478188717e+04,8.102544519960371872e+03,9.484992027282714844e+00,3.824593871831893921e-02,-6.119350194931030273e-01,1.500000000000000000e+02
1.050715009277749596e+04,9.917493516389184151e+03,8.127221909713791320e+03,9.290016944389471973e+03,1.016604029929890203e+04,1.032576601434565964e+04,1.424737468445311424e+04,7.955694036528107972e+03,9.484992027282714844e+00,3.824593871831893921e-02,-6.119350194931030273e-01,1.510000000000000000e+02
1.005855230341114111e+04,9.491656255185211194e+03,7.894489762813147536e+03,9.079589411482487776e+03,9.730666198639308277e+03,9.875966936823766446e+03,1.395064203469651693e+04,7.670494723953009270e+03,9.484992027282714844e+00,3.824593871831893921e-02,-6.119350194931030273e-01,1.520000000000000000e+02
9.562874798947155796e+03,9.013332056294326321e+03,7.600442301636326192e+03,8.898803332903553382e+03,9.251149704592535272e+03,9.374359300526923107e+03,1.378826639669075121e+04,7.331895899497039863e+03,9.484992027282714844e+00,3.824593871831893921e-02,-6.119350194931030273e-01,1.530000000000000000e+02
9.127278865817408587e+03,8.598166401115835470e+03,7.362169993456549491e+03,8.632276287752494682e+03,8.819544509379280498e+03,8.936350693424734345e+03,1.349957423637509419e+04,7.103597335530472265e+03,9.484992027282714844e+00,3.824593871831893921e-02,-6.119350194931030273e-01,1.540000000000000000e+02
8.784072833319392885e+03,8.283291536892505974e+03,7.223955975127035344e+03,8.289601398646100279e+03,8.470761537001893885e+03,8.599729697959450277e+03,1.300291910613136315e+04,7.002476446996158302e+03,9.484992027282714844e+00,3.824593871831893921e-02,-6.119350194931030273e-01,1.550000000000000000e+02
8.446944670827582740e+03,7.977479136606402790e+03,7.095953499627216843e+03,7.991913967551830865e+03,8.134850821106246258e+03,8.273056804278548952e+03,1.250374588357246648e+04,6.875476709639648107e+03,9.484992027282714844e+00,3.824593871831893921e-02,-6.119350194931030273e-01,1.560000000000000000e+02
8.030986945898832346e+03,7.587882494425819459e+03,6.878608916206498179e+03,7.803740364687289912e+03,7.733866290102242601e+03,7.862537499738963561e+03,1.222058172294589167e+04,6.610565344381023351e+03,9.446745872497558594e+00,1.147378161549568176e-01,-6.119350194931030273e-01,1.570000000000000000e+02
7.570187965800577331e+03,7.146928402391492455e+03,6.600603455284609481e+03,7.643314202933656816e+03,7.289128354710809617e+03,7.400389790434403949e+03,1.208300438642119479e+04,6.290379188099394923e+03,9.446745872497558594e+00,1.147378161549568176e-01,-6.119350194931030273e-01,1.580000000000000000e+02
7.170052633369293289e+03,6.765481096761575827e+03,6.378546106028361464e+03,7.395644897228464288e+03,6.891352985749438631e+03,6.998643922593455500e+03,1.182264301820853871e+04,6.077068078381552368e+03,9.446745872497558594e+00,1.147378161549568176e-01,-6.119350194931030273e-01,1.590000000000000000e+02
6.860808284475594519e+03,6.479642058694388652e+03,6.255162070676229632e+03,7.071337055976314332e+03,6.575118336461681793e+03,6.694488567886613055e+03,1.134564132378250906e+04,5.988599038891249620e+03,9.446745872497558594e+00,1.147378161549568176e-01,-6.119350194931030273e-01,1.600000000000000000e+02
6.554295560274557829e+03,6.202033445703052166e+03,6.140484214954841264e+03,6.791637411441221957e+03,6.270798433711210237e+03,6.399934862701986276e+03,1.086608467151905279e+04,5.875313152953849567e+03,9.446745872497558594e+00,1.147378161549568176e-01,-6.119350194931030273e-01,1.610000000000000000e+02
6.165403923200988174e+03,5.842660626596688417e+03,5.936166176761206771e+03,6.620895011563216030e+03,5.901005218639281338e+03,6.023549145470911753e+03,1.060883314020352009e+04,5.627777088663146060e+03,9.446745872497558594e+00,1.147378161549568176e-01,-6.119350194931030273e-01,1.620000000000000000e+02
5.730708053104842293e+03,5.432587252686937973e+03,5.670500050224321967e+03,6.478103169944233741e+03,5.488392002537492772e+03,5.596215289544279585e+03,1.049740804294057853e+04,5.327201336282832017e+03,9.446745872497558594e+00,1.147378161549568176e-01,-6.119350194931030273e-01,1.630000000000000000e+02
5.359312950556754913e+03,5.081107497364883784e+03,5.459085410745798981e+03,6.249018748885775494e+03,5.124661354716293317e+03,5.228190587921669248e+03,1.026140679615242698e+04,5.131319448375726097e+03,9.446745872497558594e+00,1.147378161549568176e-01,-6.119350194931030273e-01,1.640000000000000000e+02
5.083183896482672026e+03,4.825572110011830773e+03,5.345996477842481909e+03,5.943486890227598451e+03,4.843115343394595584e+03,4.956647258964228968e+03,9.810892869393252113e+03,5.055735661673286813e+03,9.446745872497558594e+00,1.147378161549568176e-01,-6.119350194931030273e-01,1.650000000000000000e+02
4.813616321336528927e+03,4.580121280516333172e+03,5.243153240280152204e+03,5.681344048499940072e+03,4.571716402319130793e+03,4.693495553470821505e+03,9.356979571990537806e+03,4.952813362733163558e+03,9.446745872497558594e+00,1.147378161549568176e-01,-6.119350194931030273e-01,1.660000000000000000e+02
4.463792233946432134e+03,4.253916987556950517e+03,5.052025140378420474e+03,5.526709268822388367e+03,4.232587909658406716e+03,4.346457766899837225e+03,9.120307151001095917e+03,4.716169733321033164e+03,9.446745872497558594e+00,1.147378161549568176e-01,-6.119350194931030273e-01,1.670000000000000000e+02
4.067859297003563370e+03,3.875585481294621786e+03,4.800990767550073542e+03,5.399716223016601361e+03,3.849923916109644779e+03,3.947045622958817148e+03,9.026386176775235072e+03,4.427888065481880403e+03,9.446745872497558594e+00,1.147378161549568176e-01,-6.119350194931030273e-01,1.680000000000000000e+02
3.732580658438554565e+03,3.552392470987249908e+03,4.606919638618246609e+03,5.187674796134002463e+03,3.516339090137139465e+03,3.607754067268770086e+03,8.809675276851654417e+03,4.245565182432510483e+03,9.446745872497558594e+00,1.147378161549568176e-01,-6.119350194931030273e-01,1.690000000000000000e+02
3.489173303618299542e+03,3.322048616366511851e+03,4.512260510316299587e+03,4.901250895632843822e+03,3.264802725714394910e+03,3.366546050729210037e+03,8.381051853025173841e+03,4.185242904660306522e+03,9.446745872497558594e+00,1.147378161549568176e-01,-6.119350194931030273e-01,1.700000000000000000e+02
3.249950742542318039e+03,3.101964232795223325e+03,4.424946520752169818e+03,4.659259981211367631e+03,3.023649099488191496e+03,3.133898489071064432e+03,7.950463428343891792e+03,4.099261041340156225e+03,9.446745872497558594e+00,1.147378161549568176e-01,-6.119350194931030273e-01,1.710000000000000000e+02
2.929780898182172677e+03,2.804322628643728876e+03,4.246483249553720270e+03,4.523603384372023356e+03,2.716101986162007506e+03,2.816629645630539926e+03,7.735919830918594016e+03,3.879869084094567370e+03,9.446745872497558594e+00,1.147378161549568176e-01,-6.119350194931030273e-01,1.720000000000000000e+02
2.564371615440746609e+03,2.456946402505803690e+03,4.008699116027407399e+03,4.413589429341032883e+03,2.365915399709214398e+03,2.446850481211426086e+03,7.662329227661419282e+03,3.607443015478707821e+03,9.446745872497558594e+00,1.147378161549568176e-01,-6.119350194931030273e-01,1.730000000000000000e+02
2.260873853883319498e+03,2.163956869842601009e+03,3.828175126734602600e+03,4.217799346527141097e+03,2.063917184212085431e+03,2.137207388997952876e+03,7.466568155508961354e+03,3.438660701353345303e+03,9.446745872497558594e+00,1.147378161549568176e-01,-6.119350194931030273e-01,1.740000000000000000e+02
2.049093335813030535e+03,1.961593164306016661e+03,3.744690329135267348e+03,3.947824971210029616e+03,1.842843447068896239e+03,1.925388480566387443e+03,7.061759759062314515e+03,3.390117120957764200e+03,9.446745872497558594e+00,1.147378161549568176e-01,-6.119350194931030273e-01,1.750000000000000000e+02
1.840300922762678056e+03,1.768059765754700493e+03,3.668478529995703866e+03,3.722018064522285385e+03,1.632659887955983322e+03,1.723052636912680100e+03,6.656553070568235853e+03,3.316160455894741972e+03,9.446745872497558594e+00,1.147378161549568176e-01,-6.119350194931030273e-01,1.760000000000000000e+02
1.550702329505425041e+03,1.497190816787649055e+03,3.505248352395839447e+03,3.602421259874466159e+03,1.357137041041328757e+03,1.438402964183654603e+03,6.465242938110694922e+03,3.110434056757901544e+03,9.446745872497558594e+00,1.147378161549568176e-01,-6.119350194931030273e-01,1.770000000000000000e+02
1.216677009676471243e+03,1.179115568570914547e+03,3.284293189281775540e+03,3.509690299533795041e+03,1.038446269743808443e+03,1.102247057491313171e+03,6.411132745576719572e+03,2.852081824685406900e+03,9.446745872497558594e+00,1.147378161549568176e-01,-6.119350194931030273e-01,1.780000000000000000e+02
9.420495095085570938e+02,9.195979297646517807e+02,3.116480636472330843e+03,3.332919592360544812e+03,7.658138472398468366e+02,8.246498323191694908e+02,6.233598587690406021e+03,2.695916960485255913e+03,9.446745872497558594e+00,1.147378161549568176e-01,-6.119350194931030273e-01,1.790000000000000000e+02
7.536273173864265118e+02,7.529419600505402741e+02,3.042389105908247075e+03,3.082661874638811241e+03,5.719276347957747930e+02,6.430741959513952679e+02,5.849018945146161968e+03,2.659327127975688654e+03,9.446745872497558594e+00,1.147378161549568176e-01,-6.119350194931030273e-01,1.800000000000000000e+02
5.664310459024668489e+02,5.924736194742322368e+02,2.977416722237240720e+03,2.875882409321250634e+03,3.882322396775730340e+02,4.706424908601238712e+02,5.466016939501334491e+03,2.598897812721536866e+03,9.446745872497558594e+00,1.147378161549568176e-01,-6.119350194931030273e-01,1.810000000000000000e+02
3.040370561104309672e+02,3.488755631535868815e+02,2.828390057438963595e+03,2.773435390701838514e+03,1.405902587403948019e+02,2.155009647400602262e+02,5.296551847187809472e+03,2.408382381676943169e+03,9.408499717712402344e+00,7.649187743663787842e-02,-7.649186849594116211e-01,1.820000000000000000e+02
4.590084398854287429e+00,5.326441655317921686e+01,2.622412134519452138e+03,2.695545271159724507e+03,-1.486243854787030614e+02,-9.283068216083529478e+01,5.263333506182147175e+03,2.165141296555430927e+03,9.408499717712402344e+00,7.649187743663787842e-02,-7.649186849594116211e-01,1.830000000000000000e+02
-2.336384647265135754e+02,-1.857256420484113733e+02,2.469608606092447189e+03,2.532778474727925186e+03,-3.931967257755527498e+02,-3.443979034107110238e+02,5.107428713004107522e+03,2.023024481119040956e+03,9.408499717712402344e+00,7.649187743663787842e-02,-7.649186849594116211e-01,1.840000000000000000e+02
-3.895243781539102201e+02,-3.317173413931272989e+02,2.409472098569439822e+03,2.297760094478440806e+03,-5.626657972838461319e+02,-5.008595681147367031e+02,4.745625294446338557e+03,1.999492431652842697e+03,9.408499717712402344e+00,7.649187743663787842e-02,-7.649186849594116211e-01,1.850000000000000000e+02
-5.488975307254318068e+02,-4.701725330633985322e+02,2.354400731605629517e+03,2.107175236278520970e+03,-7.231225600461466456e+02,-6.485380625260049783e+02,4.384305213149043993e+03,1.951216882292077571e+03,9.408499717712402344e+00,7.649187743663787842e-02,-7.649186849594116211e-01,1.860000000000000000e+02
-7.864489453235883047e+02,-6.891538566301251194e+02,2.211208791464090154e+03,2.020112368668015279e+03,-9.453486169145157874e+02,-8.786664568767487253e+02,4.233855528615411458e+03,1.772711535899373757e+03,9.408499717712402344e+00,7.649187743663787842e-02,-7.649186849594116211e-01,1.870000000000000000e+02
-1.063043631589815050e+03,-9.568820341420250770e+02,2.011669884816662034e+03,1.956965689067502808e+03,-1.207726610270904075e+03,-1.161118214613552482e+03,4.218692560763979600e+03,1.542665806596568927e+03,9.408499717712402344e+00,7.649187743663787842e-02,-7.649186849594116211e-01,1.880000000000000000e+02
-1.279517111143332841e+03,-1.166437097644505229e+03,1.869072721616109447e+03,1.809510707963542700e+03,-1.425846792567663215e+03,-1.386912174338154728e+03,4.082618860487158599e+03,1.414515478159889426e+03,9.408499717712402344e+00,7.649187743663787842e-02,-7.649186849594116211e-01,1.890000000000000000e+02
-1.412293589634556156e+03,-1.285061171588952220e+03,1.821551229201805654e+03,1.589279302976414328e+03,-1.568260488456813619e+03,-1.519450918315745639e+03,3.742730207561320640e+03,1.403641752562438342e+03,9.408499717712402344e+00,7.649187743663787842e-02,-7.649186849594116211e-01,1.900000000000000000e+02
-1.544890984492484222e+03,-1.399906304183412431e+03,1.780182678794155891e+03,1.411146303445591002e+03,-1.701081097266019242e+03,-1.644278837151736298e+03,3.403428104620753402e+03,1.366578308437117812e+03,9.408499717712402344e+00,7.649187743663787842e-02,-7.649186849594116211e-01,1.910000000000000000e+02
-1.752872992003291984e+03,-1.596792627283953607e+03,1.652582710967840285e+03,1.335519319344559335e+03,-1.898263667252026153e+03,-1.849497036231998663e+03,3.273450189007088738e+03,1.200214036267572737e+03,9.408499717712402344e+00,7.649187743663787842e-02,-7.649186849594116211e-01,1.920000000000000000e+02
-2.000304998916371915e+03,-1.841332218913886209e+03,1.469557618813475528e+03,1.285641150160638517e+03,-2.138505595465689566e+03,-2.103981683345004512e+03,3.277158116133637122e+03,9.837833268328872691e+02,9.408499717712402344e+00,7.649187743663787842e-02,-7.649186849594116211e-01,1.930000000000000000e+02
-2.189629544584158339e+03,-2.027253583356940453e+03,1.340763105575782447e+03,1.153581659417036917e+03,-2.333024146812089384e+03,-2.301375642192892883e+03,3.159091939291045492e+03,8.682158826941936240e+02,9.408499717712402344e+00,7.649187743663787842e-02,-7.649186849594116211e-01,1.940000000000000000e+02
-2.296606819558034204e+03,-2.123726326305703878e+03,1.302863559987424651e+03,9.492301853508192835e+02,-2.448731142908942275e+03,-2.407188966140051434e+03,2.836762608527254997e+03,8.680976545472371981e+02,9.408499717712402344e+00,7.649187743663787842e-02,-7.649186849594116211e-01,1.950000000000000000e+02
-2.405282343427038541e+03,-2.217765801551472123e+03,1.269804230451351032e+03,7.867975591481499578e+02,-2.555006804982616359e+03,-2.505896547363629907e+03,2.514296141333556989e+03,8.426605998794861989e+02,9.408499717712402344e+00,7.649187743663787842e-02,-7.649186849594116211e-01,1.960000000000000000e+02
-2.593827364033759750e+03,-2.393637127715759561e+03,1.152159683440337176e+03,7.269607145610621046e+02,-2.727033287669971287e+03,-2.684171476230223561e+03,2.400063481867912742e+03,6.900833417540270602e+02,9.408499717712402344e+00,7.649187743663787842e-02,-7.649186849594116211e-01,1.970000000000000000e+02
-2.826884744098682859e+03,-2.616109261317301389e+03,9.800579852106675389e+02,6.932545034204454169e+02,-2.941255283624347157e+03,-2.911643354725285462e+03,2.419170280191069651e+03,4.872417763892785842e+02,9.408499717712402344e+00,7.649187743663787842e-02,-7.649186849594116211e-01,1.980000000000000000e+02
-3.002561656966153350e+03,-2.779002983383357787e+03,8.609695329441365175e+02,5.782642244850203497e+02,-3.109146247251865589e+03,-3.083234602002518386e+03,2.318173586196654469e+03,3.835264429404292059e+02,9.408499717712402344e+00,7.649187743663787842e-02,-7.649186849594116211e-01,1.990000000000000000e+02
-3.090467119305792039e+03,-2.852063331699912396e+03,8.316362483286002316e+02,3.913594535500797065e+02,-3.200393095760485721e+03,-3.164690037359761391e+03,2.015812095352941469e+03,3.947736518353108295e+02,9.408499717712402344e+00,7.649187743663787842e-02,-7.649186849594116211e-01,2.000000000000000000e+02
-3.172087538495954504e+03,-2.923160785835576007e+03,8.077764638509033830e+02,2.441101507703870084e+02,-3.284287902708249931e+03,-3.240505845846310422e+03,1.714616440403461638e+03,3.806768011562230640e+02,9.408499717712402344e+00,7.649187743663787842e-02,-7.649186849594116211e-01,2.010000000000000000e+02
-3.328460617153959902e+03,-3.077186467839793295e+03,7.003054668395252520e+02,1.956842306077451212e+02,-3.433934298808205313e+03,-3.396805142499659269e+03,1.619911992027286942e+03,2.387951202444987757e+02,9.408499717712402344e+00,7.649187743663787842e-02,-7.649186849594116211e-01,2.020000000000000000e+02
-3.529747954826327259e+03,-3.279143764333824038e+03,5.379605251443522320e+02,1.721862335730138511e+02,-3.626230134316552721e+03,-3.601090869752561048e+03,1.655903914728123709e+03,4.761033056417090847e+01,9.408499717712402344e+00,7.649187743663787842e-02,-7.649186849594116211e-01,2.030000000000000000e+02
-3.678232925120133132e+03,-3.422693351612208971e+03,4.274621244549862240e+02,6.915435140052068164e+01,-3.774399389825655362e+03,-3.747415552485351782e+03,1.571237544510114276e+03,-4.190964726040556343e+01,9.408499717712402344e+00,7.649187743663787842e-02,-7.649186849594116211e-01,2.040000000000000000e+02
-3.744509478153695909e+03,-3.476288634984010969e+03,4.062998906099965097e+02,-1.048560284144818979e+02,-3.847605015717379047e+03,-3.804820132980617927e+03,1.286642795328324610e+03,-1.672457051440869691e+01,9.408499717712402344e+00,7.649187743663787842e-02,-7.649186849594116211e-01,2.050000000000000000e+02
-3.808279485004770322e+03,-3.525862538125582887e+03,3.914189985887119292e+02,-2.396930074133733797e+02,-3.912930901834041379e+03,-3.861121630251283023e+03,1.004205986368093363e+03,-2.024468194528731146e+01,9.408499717712402344e+00,7.649187743663787842e-02,-7.649186849594116211e-01,2.060000000000000000e+02
-3.946747035961795518e+03,-3.656135086280799896e+03,2.949298627752446009e+02,-2.745833772498890539e+02,-4.041765845312702368e+03,-4.000282033068096553e+03,9.278305116215969974e+02,-1.528166760679639538e+02,9.408499717712402344e+00,7.649187743663787842e-02,-7.649186849594116211e-01,2.070000000000000000e+02
-4.125718782731679312e+03,-3.833862307644696557e+03,1.463998679775863820e+02,-2.824086038684822597e+02,-4.210888438613794278e+03,-4.185629698291635577e+03,9.815483682544654584e+02,-3.333972912254239418e+02,9.408499717712402344e+00,7.649187743663787842e-02,-7.649186849594116211e-01,2.080000000000000000e+02
-4.246664012355812702e+03,-3.953932773657807957e+03,5.192721078675549506e+01,-3.702847398982935374e+02,-4.335576281055278741e+03,-4.311608237862303213e+03,9.146599459837816539e+02,-4.132730543265290635e+02,9.446745872497558594e+00,7.649187743663787842e-02,-6.884268522262573242e-01,2.090000000000000000e+02
-4.285254427698178915e+03,-3.985615276156381697e+03,4.700804764119902757e+01,-5.314706346396019399e+02,-4.387114514722205968e+03,-4.349749624942613082e+03,6.476977928395408526e+02,-3.806272575623197554e+02,9.446745872497558594e+00,7.649187743663787842e-02,-6.884268522262573242e-01,2.100000000000000000e+02
-4.326892886921270474e+03,-4.016604235497457012e+03,4.707611520582713638e+01,-6.539251742665492202e+02,-4.431389795105813391e+03,-4.386552670017010314e+03,3.814475618681590277e+02,-3.745339989531685205e+02,9.446745872497558594e+00,7.649187743663787842e-02,-6.884268522262573242e-01,2.110000000000000000e+02
-4.447915940602610135e+03,-4.131608212422499491e+03,-3.607205906280751151e+01,-6.762124418118969515e+02,-4.537441831822336098e+03,-4.503969280287245056e+03,3.185763090850596200e+02,-4.932436564821516640e+02,9.446745872497558594e+00,7.649187743663787842e-02,-6.884268522262573242e-01,2.120000000000000000e+02
-4.608980175286209487e+03,-4.293805640245856921e+03,-1.731161113978528192e+02,-6.736746865958380113e+02,-4.683554118950921293e+03,-4.668314418717611261e+03,3.833728599012756604e+02,-6.607504963346082150e+02,9.446745872497558594e+00,7.649187743663787842e-02,-6.884268522262573242e-01,2.130000000000000000e+02
-4.710469220775926260e+03,-4.396214099193251968e+03,-2.583737349952625664e+02,-7.528803034037255202e+02,-4.788100355174781726e+03,-4.777462715608469807e+03,3.274282410395644547e+02,-7.319491894785005570e+02,9.446745872497558594e+00,7.649187743663787842e-02,-6.884268522262573242e-01,2.140000000000000000e+02
-4.731293156351797734e+03,-4.411202749171891810e+03,-2.558895502291702542e+02,-9.023818260049310993e+02,-4.821133728908136618e+03,-4.799799877460381140e+03,7.386267340951781080e+01,-6.915773428237935150e+02,9.446745872497558594e+00,7.649187743663787842e-02,-6.884268522262573242e-01,2.150000000000000000e+02
-4.757156362830670332e+03,-4.428018174862562773e+03,-2.491660254252387858e+02,-1.009676127811015249e+03,-4.845194160609315077e+03,-4.816754583088184518e+03,-1.765852909315681245e+02,-6.755119901654888963e+02,9.446745872497558594e+00,7.649187743663787842e-02,-6.884268522262573242e-01,2.160000000000000000e+02
-4.860945639316294546e+03,-4.527229354917333694e+03,-3.261520180537104352e+02,-1.019373998933918301e+03,-4.930045892155014371e+03,-4.911599978295756955e+03,-2.237322407392821333e+02,-7.838864733811331007e+02,9.446745872497558594e+00,7.649187743663787842e-02,-6.884268522262573242e-01,2.170000000000000000e+02
-5.002538538856004379e+03,-4.669687556754411162e+03,-4.579048204718949364e+02,-1.009839533058277993e+03,-5.057089493536521331e+03,-5.055290051747849247e+03,-1.444118938944407091e+02,-9.422640545242952612e+02,9.446745872497558594e+00,7.649187743663787842e-02,-6.884268522262573242e-01,2.180000000000000000e+02
-5.085006816928214903e+03,-4.752896397272546892e+03,-5.380550053752992881e+02,-1.083143969091838699e+03,-5.144848344140415065e+03,-5.145955309621384004e+03,-1.852811134693179156e+02,-1.004260666408068118e+03,9.446745872497558594e+00,7.649187743663787842e-02,-6.884268522262573242e-01,2.190000000000000000e+02
-5.087786118600692134e+03,-4.752667889135918813e+03,-5.288505091556719435e+02,-1.224112858170701202e+03,-5.161766631631245218e+03,-5.149862558081771567e+03,-4.219143781166635563e+02,-9.548553253132704413e+02,9.446745872497558594e+00,7.649187743663787842e-02,-6.884268522262573242e-01,2.200000000000000000e+02
-5.094487792574445848e+03,-4.754647991907517280e+03,-5.131706828184690039e+02,-1.322450516659244840e+03,-5.170618900912564641e+03,-5.149772935129346479e+03,-6.549910695487415069e+02,-9.317926812018083638e+02,9.446745872497558594e+00,7.649187743663787842e-02,-6.884268522262573242e-01,2.210000000000000000e+02
-5.178325313743354855e+03,-4.835711003126109063e+03,-5.806172359972586037e+02,-1.324470740162133325e+03,-5.241653591591617442e+03,-5.231044004610059346e+03,-6.860329750112036891e+02,-1.034358265008547733e+03,9.446745872497558594e+00,7.649187743663787842e-02,-6.884268522262573242e-01,2.220000000000000000e+02
-5.301973132470352539e+03,-4.959324775309323741e+03,-7.039047058143919458e+02,-1.305565895093082872e+03,-5.354636050174421143e+03,-5.362400141351839011e+03,-5.915800079097539310e+02,-1.185568033962843629e+03,9.446745872497558594e+00,7.649187743663787842e-02,-6.884268522262573242e-01,2.230000000000000000e+02
-5.369034454478079169e+03,-5.026478792311168945e+03,-7.762470027388883409e+02,-1.365960603771444084e+03,-5.426598158446828165e+03,-5.438679454484853522e+03,-6.174828633812921908e+02,-1.239028251064603637e+03,9.446745872497558594e+00,7.649187743663787842e-02,-6.884268522262573242e-01,2.240000000000000000e+02
-5.357043324279894478e+03,-5.010923827782831722e+03,-7.592190470655293666e+02,-1.493121954658569393e+03,-5.427175537785355118e+03,-5.426690927524395192e+03,-8.395490468833331761e+02,-1.181344999800632877e+03,9.446745872497558594e+00,7.649187743663787842e-02,-6.884268522262573242e-01,2.250000000000000000e+02
-5.349044491796047623e+03,-4.994333591877995786e+03,-7.368402793575949090e+02,-1.578564103625462394e+03,-5.421483413307970295e+03,-5.410867704788244737e+03,-1.058843876644619741e+03,-1.150342998603240858e+03,9.446745872497558594e+00,7.649187743663787842e-02,-6.884268522262573242e-01,2.260000000000000000e+02
-5.419016498491507264e+03,-5.054490127756980655e+03,-7.993375506447353018e+02,-1.567156487529681044e+03,-5.480371275006323231e+03,-5.475642450017552619e+03,-1.076920574893736557e+03,-1.244416761263443732e+03,9.446745872497558594e+00,7.649187743663787842e-02,-6.884268522262573242e-01,2.270000000000000000e+02
-5.529107951750391294e+03,-5.160093451608967371e+03,-9.171644407077299093e+02,-1.534688389691784323e+03,-5.581755044904542956e+03,-5.588858711265248530e+03,-9.705189054525872052e+02,-1.386415352539547712e+03,9.446745872497558594e+00,7.649187743663787842e-02,-6.884268522262573242e-01,2.280000000000000000e+02
-5.581711163743521865e+03,-5.215229847006221462e+03,-9.815821703635408539e+02,-1.584835217991393165e+03,-5.640064306170806958e+03,-5.647101642372602328e+03,-9.850382772038105941e+02,-1.430116092077247458e+03,9.446745872497558594e+00,7.649187743663787842e-02,-6.884268522262573242e-01,2.290000000000000000e+02
-5.554476611120354391e+03,-5.190924452513282631e+03,-9.557678476953474274e+02,-1.705785985057620110e+03,-5.624120961403155889e+03,-5.618825948878263262e+03,-1.194705287999885513e+03,-1.362444622420986207e+03,9.446745872497558594e+00,7.649187743663787842e-02,-6.884268522262573242e-01,2.300000000000000000e+02
-5.531258411784472628e+03,-5.163978465728505398e+03,-9.255205431325603058e+02,-1.785840207587638361e+03,-5.600588173658502456e+03,-5.587916936426087887e+03,-1.400376737397976740e+03,-1.322048859027097023e+03,9.446745872497558594e+00,7.649187743663787842e-02,-6.884268522262573242e-01,2.310000000000000000e+02
-5.586389408560087759e+03,-5.211233211546246821e+03,-9.794039045012805218e+02,-1.768139902588754921e+03,-5.641891351824147023e+03,-5.638041696227739521e+03,-1.405973953469407206e+03,-1.407747030272619213e+03,9.446745872497558594e+00,7.649187743663787842e-02,-6.884268522262573242e-01,2.320000000000000000e+02
-5.682395060939134964e+03,-5.304180131476920906e+03,-1.086358581658497769e+03,-1.729149345985319087e+03,-5.726150157964595564e+03,-5.737241567918176770e+03,-1.289282044032821432e+03,-1.542062190010899485e+03,9.446745872497558594e+00,7.649187743663787842e-02,-6.884268522262573242e-01,2.330000000000000000e+02
-5.721995993487936175e+03,-5.347912230014312627e+03,-1.140166308185628623e+03,-1.771465252483572385e+03,-5.768517799357961849e+03,-5.782270684067040747e+03,-1.292831106554991493e+03,-1.579008870013331943e+03,9.446745872497558594e+00,7.649187743663787842e-02,-6.884268522262573242e-01,2.340000000000000000e+02
-5.682192112304651346e+03,-5.311713261717021851e+03,-1.106936557396532407e+03,-1.881721540681131046e+03,-5.739816407947049811e+03,-5.741631339772456158e+03,-1.488680494516927865e+03,-1.506018831802218301e+03,9.446745872497558594e+00,7.649187743663787842e-02,-6.884268522262573242e-01,2.350000000000000000e+02
-5.645681436399750055e+03,-5.272478210965602557e+03,-1.071509616108522096e+03,-1.950878584564064568e+03,-5.706702769317331331e+03,-5.699076124209960653e+03,-1.680430246396269467e+03,-1.460435026005551663e+03,9.446745872497558594e+00,7.649187743663787842e-02,-6.884268522262573242e-01,2.360000000000000000e+02
-5.686442874973351536e+03,-5.309122604041705927e+03,-1.120117384847830181e+03,-1.925924941747124649e+03,-5.737858890582867389e+03,-5.736967175395605409e+03,-1.675209691308002220e+03,-1.538769466947987439e+03,9.446745872497558594e+00,7.649187743663787842e-02,-6.884268522262573242e-01,2.370000000000000000e+02
-5.767797601277912690e+03,-5.392156207097023071e+03,-1.221658711235431383e+03,-1.881582191496937867e+03,-5.808157488064327481e+03,-5.822158985057315476e+03,-1.548827349045667688e+03,-1.663580004285006908e+03,9.446745872497558594e+00,7.649187743663787842e-02,-6.884268522262573242e-01,2.380000000000000000e+02
-5.793932524465499228e+03,-5.423375509582370796e+03,-1.270762064653329617e+03,-1.915539292321115681e+03,-5.834286254705935789e+03,-5.852798945583246677e+03,-1.540094300662571186e+03,-1.691334613393461495e+03,9.446745872497558594e+00,7.649187743663787842e-02,-6.884268522262573242e-01,2.390000000000000000e+02
-5.742563625470793340e+03,-5.373021425589624414e+03,-1.232940141522159138e+03,-2.014192500627003028e+03,-5.790823179848819564e+03,-5.799505083731939521e+03,-1.721990261358044336e+03,-1.610873116085587753e+03,9.484992027282714844e+00,1.147378161549568176e-01,-5.736890435218811035e-01,2.400000000000000000e+02
-5.694937180385282772e+03,-5.322585555056529302e+03,-1.192028227470045294e+03,-2.072482516958981250e+03,-5.745313011773068865e+03,-5.745389511279587168e+03,-1.901885839481546100e+03,-1.558906410246738687e+03,9.484992027282714844e+00,1.147378161549568176e-01,-5.736890435218811035e-01,2.410000000000000000e+02
-5.723414008900374029e+03,-5.351042727046954496e+03,-1.234540835304499524e+03,-2.038959284766740893e+03,-5.764973372087240023e+03,-5.771233571252820184e+03,-1.887590924275025827e+03,-1.631692595462638565e+03,9.484992027282714844e+00,1.147378161549568176e-01,-5.736890435218811035e-01,2.420000000000000000e+02
-5.793106431210249866e+03,-5.423846765296087142e+03,-1.330676699506006571e+03,-1.986874114916308827e+03,-5.824686628341895812e+03,-5.844684827029295775e+03,-1.752780876932391948e+03,-1.752509585668857198e+03,9.484992027282714844e+00,1.147378161549568176e-01,-5.736890435218811035e-01,2.430000000000000000e+02
-5.811231276466989584e+03,-5.441655553633101590e+03,-1.375968145940677459e+03,-2.013855032891047813e+03,-5.842025550030925842e+03,-5.864792579692821164e+03,-1.735486874218967387e+03,-1.777225895473512992e+03,9.484992027282714844e+00,1.147378161549568176e-01,-5.736890435218811035e-01,2.440000000000000000e+02
-5.754295109792836229e+03,-5.379680642821305810e+03,-1.335153598316323041e+03,-2.107588321553786955e+03,-5.790122783595457804e+03,-5.800416713367190823e+03,-1.909175158414403995e+03,-1.692491776136278531e+03,9.484992027282714844e+00,1.147378161549568176e-01,-5.736890435218811035e-01,2.450000000000000000e+02
-5.699749776458479573e+03,-5.321528183166093186e+03,-1.289971503727103482e+03,-2.162261348930182066e+03,-5.734386882541499290e+03,-5.733441780606434804e+03,-2.080609639941694695e+03,-1.633960617922138226e+03,9.484992027282714844e+00,1.147378161549568176e-01,-5.736890435218811035e-01,2.460000000000000000e+02
-5.719511639970403849e+03,-5.342034955309920406e+03,-1.326018881319441789e+03,-2.124316666596573668e+03,-5.743173813124114531e+03,-5.746637509186611169e+03,-2.057081065619831861e+03,-1.698912377058128186e+03,9.484992027282714844e+00,1.147378161549568176e-01,-5.736890435218811035e-01,2.470000000000000000e+02
-5.780122701368805792e+03,-5.404790746646262050e+03,-1.414961960056604767e+03,-2.066685695187963574e+03,-5.793848461503409453e+03,-5.809416701691434355e+03,-1.913498775051277335e+03,-1.811744860811377293e+03,9.484992027282714844e+00,1.147378161549568176e-01,-5.736890435218811035e-01,2.480000000000000000e+02
-5.787492938487481297e+03,-5.414577179473022625e+03,-1.453916559490467989e+03,-2.087912433395322296e+03,-5.803017131756592789e+03,-5.819999626383878422e+03,-1.888633823753163597e+03,-1.828959283276132737e+03,9.484992027282714844e+00,1.147378161549568176e-01,-5.736890435218811035e-01,2.490000000000000000e+02
-5.717398314185837989e+03,-5.348023002566156720e+03,-1.407678976671741111e+03,-2.175257232144456793e+03,-5.740916479258281470e+03,-5.746672766240993951e+03,-2.054418196720742344e+03,-1.738476680389489957e+03,9.484992027282714844e+00,1.147378161549568176e-01,-5.736890435218811035e-01,2.500000000000000000e+02
-5.650751697104431514e+03,-5.283556865120302973e+03,-1.358097713340403061e+03,-2.221866130681108189e+03,-5.673083286353753465e+03,-5.671796048718004386e+03,-2.216604487277039880e+03,-1.676575184958994214e+03,9.484992027282714844e+00,1.147378161549568176e-01,-5.736890435218811035e-01,2.510000000000000000e+02
-5.661110189952925793e+03,-5.293577915001962538e+03,-1.391354470387954279e+03,-2.175112303984062237e+03,-5.670311828015006540e+03,-5.676893854768779420e+03,-2.184183905878722726e+03,-1.738517869946909741e+03,9.484992027282714844e+00,1.147378161549568176e-01,-5.736890435218811035e-01,2.520000000000000000e+02
-5.711300168513136668e+03,-5.346096035988796757e+03,-1.477776181994829130e+03,-2.110203553407565778e+03,-5.710921404315704422e+03,-5.729818293931650260e+03,-2.033666273399674537e+03,-1.846726863661449897e+03,9.484992027282714844e+00,1.147378161549568176e-01,-5.736890435218811035e-01,2.530000000000000000e+02
-5.706138534314771277e+03,-5.347301867398367904e+03,-1.511502048392918368e+03,-2.126100152742605133e+03,-5.711639599011257815e+03,-5.730887372807808788e+03,-2.002658084409475123e+03,-1.859509386167270350e+03,9.484992027282714844e+00,1.147378161549568176e-01,-5.736890435218811035e-01,2.540000000000000000e+02
-5.626147384348714695e+03,-5.268563912147076735e+03,-1.456656192058984743e+03,-2.208120663464141217e+03,-5.643843059751247893e+03,-5.651560826634962723e+03,-2.161356460967472231e+03,-1.767503213943528863e+03,9.484992027282714844e+00,1.147378161549568176e-01,-5.736890435218811035e-01,2.550000000000000000e+02
-5.553399199323193898e+03,-5.187928075026159604e+03,-1.397476030948593689e+03,-2.248231091054709395e+03,-5.572744815224425111e+03,-5.572976189923065249e+03,-2.315967625499890346e+03,-1.705419751604069461e+03,9.484992027282714844e+00,1.147378161549568176e-01,-5.736890435218811035e-01,2.560000000000000000e+02
-5.556390541813805612e+03,-5.186424406444957640e+03,-1.422008141766769768e+03,-2.194903991944299378e+03,-5.565716246646086802e+03,-5.573108723540859501e+03,-2.276741030719414994e+03,-1.764740697608271148e+03,9.484992027282714844e+00,1.147378161549568176e-01,-5.736890435218811035e-01,2.570000000000000000e+02
-5.596945328329671611e+03,-5.236591513605444561e+03,-1.500861942287408056e+03,-2.124164826387657740e+03,-5.598683571149038471e+03,-5.619437650337318701e+03,-2.119754335424197052e+03,-1.867554837462242176e+03,9.484992027282714844e+00,1.147378161549568176e-01,-5.736890435218811035e-01,2.580000000000000000e+02
-5.584681434959347825e+03,-5.238531898422967060e+03,-1.529303652686313399e+03,-2.133832210506663614e+03,-5.590348000773725289e+03,-5.613784140163696065e+03,-2.081177681666464196e+03,-1.874611348445641852e+03,9.484992027282714844e+00,1.147378161549568176e-01,-5.736890435218811035e-01,2.590000000000000000e+02
-5.500269295254520330e+03,-5.158178763248672112e+03,-1.472938216394397386e+03,-2.208695758396741439e+03,-5.515216277158484445e+03,-5.526976618740169215e+03,-2.231160877393362171e+03,-1.777284172483089606e+03,9.484992027282714844e+00,1.147378161549568176e-01,-5.736890435218811035e-01,2.600000000000000000e+02
-5.420968859626605990e+03,-5.075127119590964867e+03,-1.414547793882873520e+03,-2.242505747002687713e+03,-5.438679037718207837e+03,-5.439194501344471064e+03,-2.377625984542522929e+03,-1.709444005729870696e+03,9.523238182067871094e+00,7.649187743663787842e-02,-6.119350194931030273e-01,2.610000000000000000e+02
-5.415857998204341129e+03,-5.070105440986884787e+03,-1.438611177194984521e+03,-2.184945504840470676e+03,-5.426385758093219920e+03,-5.430291695724430610e+03,-2.332297397980624737e+03,-1.763030975418435446e+03,9.523238182067871094e+00,7.649187743663787842e-02,-6.119350194931030273e-01,2.620000000000000000e+02
-5.451210989427338063e+03,-5.110509405844957655e+03,-1.514558484670321377e+03,-2.110911868484439765e+03,-5.453578263599285492e+03,-5.470233960883093459e+03,-2.170640821945002244e+03,-1.861523619990145562e+03,9.523238182067871094e+00,7.649187743663787842e-02,-6.119350194931030273e-01,2.630000000000000000e+02
-5.434567556209047325e+03,-5.096719581646950246e+03,-1.539420258427693625e+03,-2.117892459269185565e+03,-5.439185857521613798e+03,-5.460925362350622891e+03,-2.126774650800289237e+03,-1.865992962301343141e+03,9.523238182067871094e+00,7.649187743663787842e-02,-6.119350194931030273e-01,2.640000000000000000e+02
-5.341016494546744070e+03,-5.002821958165541218e+03,-1.479727918716186650e+03,-2.192549070817034590e+03,-5.357208102871831215e+03,-5.372006186435548443e+03,-2.269950255035455484e+03,-1.766969514317285757e+03,9.523238182067871094e+00,7.649187743663787842e-02,-6.119350194931030273e-01,2.650000000000000000e+02
-5.249378080583082919e+03,-4.913145877739460047e+03,-1.417268287238164703e+03,-2.228694835988022533e+03,-5.272385392468791906e+03,-5.282562460280387313e+03,-2.409403187085586978e+03,-1.697013986427964483e+03,9.523238182067871094e+00,7.649187743663787842e-02,-6.119350194931030273e-01,2.660000000000000000e+02
-5.234464349838972339e+03,-4.905158447982305006e+03,-1.436147503459040308e+03,-2.172477439625161423e+03,-5.251539255227551621e+03,-5.270754349678893050e+03,-2.358129099177052922e+03,-1.746909605915367138e+03,9.523238182067871094e+00,7.649187743663787842e-02,-6.119350194931030273e-01,2.670000000000000000e+02
-5.263262794380661944e+03,-4.943148742858214973e+03,-1.506796816375559501e+03,-2.096007857163078370e+03,-5.272437631930555654e+03,-5.304944376455978272e+03,-2.190817060995928841e+03,-1.840320667105079337e+03,9.523238182067871094e+00,7.649187743663787842e-02,-6.119350194931030273e-01,2.680000000000000000e+02
-5.241780771346417168e+03,-4.928250231548066949e+03,-1.527158930208323000e+03,-2.097343987376805671e+03,-5.254991521248526624e+03,-5.287384330427925306e+03,-2.140300375179362163e+03,-1.839899439845539746e+03,9.523238182067871094e+00,7.649187743663787842e-02,-6.119350194931030273e-01,2.690000000000000000e+02
-5.147102821063152078e+03,-4.833831576397742538e+03,-1.464445959535252769e+03,-2.164203962560186483e+03,-5.171589529670683987e+03,-5.189475739807059654e+03,-2.276162054192413052e+03,-1.737221327071452833e+03,9.523238182067871094e+00,7.649187743663787842e-02,-6.119350194931030273e-01,2.700000000000000000e+02
-5.058402286213233310e+03,-4.740943384305614018e+03,-1.400931235259753521e+03,-2.190741072329572489e+03,-5.084878746120681171e+03,-5.091784364533588814e+03,-2.408676489369579940e+03,-1.664469739598158412e+03,9.523238182067871094e+00,7.649187743663787842e-02,-6.119350194931030273e-01,2.710000000000000000e+02
-5.044958416383542499e+03,-4.726166339466391946e+03,-1.419528305985912084e+03,-2.125381323180012259e+03,-5.060629820213367566e+03,-5.073590667585698611e+03,-2.351090070262460358e+03,-1.712008584307091951e+03,9.523238182067871094e+00,7.649187743663787842e-02,-6.119350194931030273e-01,2.720000000000000000e+02
-5.069976709307085912e+03,-4.755836059275789012e+03,-1.488450144842165173e+03,-2.043739816186407552e+03,-5.076144429613543252e+03,-5.104019076217578913e+03,-2.178220186661797925e+03,-1.803812026282665101e+03,9.523238182067871094e+00,7.649187743663787842e-02,-6.119350194931030273e-01,2.730000000000000000e+02
-5.042685585950703171e+03,-4.732487021083041327e+03,-1.505733811283589603e+03,-2.044185914532652532e+03,-5.051840738812599739e+03,-5.084857727706639707e+03,-2.123221841292015597e+03,-1.802735646342258406e+03,9.523238182067871094e+00,7.649187743663787842e-02,-6.119350194931030273e-01,2.740000000000000000e+02
-4.943445440745897940e+03,-4.630329419327750657e+03,-1.440472509842973523e+03,-2.111556806087164659e+03,-4.962319167309284239e+03,-4.986164851521338278e+03,-2.254895128115858824e+03,-1.699857252355584933e+03,9.523238182067871094e+00,7.649187743663787842e-02,-6.119350194931030273e-01,2.750000000000000000e+02
-4.849874344622723584e+03,-4.532450074254316860e+03,-1.374378341563300637e+03,-2.138267807987907872e+03,-4.872016139205297804e+03,-4.887297161467635306e+03,-2.382271998342672305e+03,-1.626267966095456359e+03,9.523238182067871094e+00,7.649187743663787842e-02,-6.119350194931030273e-01,2.760000000000000000e+02
-4.830403554074620843e+03,-4.516784984830455869e+03,-1.388324113979826507e+03,-2.072607231205282005e+03,-4.845655407619684411e+03,-4.866117324172970257e+03,-2.319362680894868390e+03,-1.671092703133377654e+03,9.523238182067871094e+00,7.649187743663787842e-02,-6.119350194931030273e-01,2.770000000000000000e+02
-4.851160718052644370e+03,-4.548417121236463572e+03,-1.452266987942766718e+03,-1.988684395544645668e+03,-4.858605889884562202e+03,-4.890349630054415684e+03,-2.142881740862612787e+03,-1.758012168672326879e+03,9.523238182067871094e+00,7.649187743663787842e-02,-6.119350194931030273e-01,2.780000000000000000e+02
-4.822425926537247506e+03,-4.527979568473112522e+03,-1.468236515252903700e+03,-1.983044117714516688e+03,-4.831345005952985957e+03,-4.862515388904901556e+03,-2.085242543630411092e+03,-1.751058833818788116e+03,9.523238182067871094e+00,7.649187743663787842e-02,-6.119350194931030273e-01,2.790000000000000000e+02
-4.721404254140206831e+03,-4.428815483120164572e+03,-1.404844131206602469e+03,-2.042111843783291988e+03,-4.739106051829487114e+03,-4.755657743522137025e+03,-2.212765266706985130e+03,-1.642783363424785421e+03,9.523238182067871094e+00,7.649187743663787842e-02,-6.119350194931030273e-01,2.800000000000000000e+02
-4.623978445329392343e+03,-4.332747690116710146e+03,-1.339677817364496150e+03,-2.062219774776873237e+03,-4.645389222842217350e+03,-4.651242930202002754e+03,-2.334609092062430136e+03,-1.564994758032793470e+03,9.523238182067871094e+00,7.649187743663787842e-02,-6.119350194931030273e-01,2.810000000000000000e+02
-4.600658023643156412e+03,-4.315489327630455591e+03,-1.352461457252629771e+03,-1.993284389870324958e+03,-4.614243583144545482e+03,-4.627028465295039496e+03,-2.267370961829754378e+03,-1.607174521082159117e+03,9.523238182067871094e+00,7.649187743663787842e-02,-6.119350194931030273e-01,2.820000000000000000e+02
-4.618673118598264409e+03,-4.341239744539892854e+03,-1.414561897841982500e+03,-1.907965664259518235e+03,-4.622444629830168196e+03,-4.650396656845110556e+03,-2.087975902942347602e+03,-1.693098186314378836e+03,9.523238182067871094e+00,7.649187743663787842e-02,-6.119350194931030273e-01,2.830000000000000000e+02
-4.586442826424910891e+03,-4.312766969093416265e+03,-1.426879517205719822e+03,-1.901296560542548832e+03,-4.591930517723138109e+03,-4.623772626213625699e+03,-2.026267706644674035e+03,-1.686028074666479370e+03,9.523238182067871094e+00,7.649187743663787842e-02,-6.119350194931030273e-01,2.840000000000000000e+02
-4.480492999245157989e+03,-4.207136319605360768e+03,-1.356440321592624969e+03,-1.959382269989771885e+03,-4.497584795913126072e+03,-4.518553273081601219e+03,-2.147694850937525189e+03,-1.577207803629426053e+03,9.523238182067871094e+00,7.649187743663787842e-02,-6.119350194931030273e-01,2.850000000000000000e+02
-4.378666434734401264e+03,-4.108030932753898014e+03,-1.283806384430339676e+03,-1.978464950285841041e+03,-4.402144260934835984e+03,-4.413635482363832125e+03,-2.263786300950963778e+03,-1.497500392430678403e+03,9.484992027282714844e+00,7.649187743663787842e-02,-6.501809358596801758e-01,2.860000000000000000e+02
-4.352238757029248518e+03,-4.089132885532657383e+03,-1.292857250129676686e+03,-1.908358390780016634e+03,-4.369820881398787606e+03,-4.386303166124191193e+03,-2.192925426787369361e+03,-1.536192883638932472e+03,9.484992027282714844e+00,7.649187743663787842e-02,-6.501809358596801758e-01,2.870000000000000000e+02
-4.366856514755891112e+03,-4.111723964667824475e+03,-1.354209650204596983e+03,-1.821719511196703024e+03,-4.377732932763836288e+03,-4.405966303452249122e+03,-2.010985217030160129e+03,-1.618176187592009228e+03,9.484992027282714844e+00,7.649187743663787842e-02,-6.501809358596801758e-01,2.880000000000000000e+02
-4.330689663520301110e+03,-4.079905163316747348e+03,-1.365630737463341575e+03,-1.813285330954751771e+03,-4.347531750729123814e+03,-4.377010645895328707e+03,-1.945967672309114278e+03,-1.608958266044774064e+03,9.484992027282714844e+00,7.649187743663787842e-02,-6.501809358596801758e-01,2.890000000000000000e+02
-4.222407312955201633e+03,-3.974519921869654354e+03,-1.293975382720824200e+03,-1.869147997453490461e+03,-4.253192371820567132e+03,-4.271380231224913587e+03,-2.062729291160569119e+03,-1.500643702584413404e+03,9.484992027282714844e+00,7.649187743663787842e-02,-6.501809358596801758e-01,2.900000000000000000e+02
-4.120767319128040981e+03,-3.877975346007438930e+03,-1.220811854511828642e+03,-1.886663184938521226e+03,-4.156341936593267747e+03,-4.167602742294557174e+03,-2.173487193942324666e+03,-1.422165938493651993e+03,9.484992027282714844e+00,7.649187743663787842e-02,-6.501809358596801758e-01,2.910000000000000000e+02
-4.095349682218215094e+03,-3.858312806571722831e+03,-1.228872957843783297e+03,-1.816471760163394720e+03,-4.121023096773489669e+03,-4.141673338876291382e+03,-2.098168735558658227e+03,-1.460943072532496444e+03,9.484992027282714844e+00,7.649187743663787842e-02,-6.501809358596801758e-01,2.920000000000000000e+02
-4.110717091261758469e+03,-3.876463313425874730e+03,-1.288184770797553938e+03,-1.730122083957572613e+03,-4.125631518134083308e+03,-4.160891984070953185e+03,-1.914119099129260576e+03,-1.542170681593514018e+03,9.484992027282714844e+00,7.649187743663787842e-02,-6.501809358596801758e-01,2.930000000000000000e+02
-4.076132496988451749e+03,-3.842190948220413702e+03,-1.298821062558099584e+03,-1.720876534954884846e+03,-4.092920263599909958e+03,-4.128544472273513747e+03,-1.849192308999357920e+03,-1.531396817283981363e+03,9.484992027282714844e+00,7.649187743663787842e-02,-6.501809358596801758e-01,2.940000000000000000e+02
-3.970842580302960414e+03,-3.737351275910563345e+03,-1.229145763732409250e+03,-1.775051880556733522e+03,-3.996702185934682348e+03,-4.017910688645630216e+03,-1.966688659693812951e+03,-1.419545024634253423e+03,9.484992027282714844e+00,7.649187743663787842e-02,-6.501809358596801758e-01,2.950000000000000000e+02
-3.871979123238248576e+03,-3.639299904340768990e+03,-1.158970516079796653e+03,-1.790627180913277698e+03,-3.898525637898868808e+03,-3.909708079511205142e+03,-2.077906249434170604e+03,-1.336335805539121793e+03,9.484992027282714844e+00,7.649187743663787842e-02,-6.501809358596801758e-01,2.960000000000000000e+02
-3.847305427083381801e+03,-3.615982370329958940e+03,-1.169238857612795982e+03,-1.717815066618761193e+03,-3.862900288002856541e+03,-3.880716000324104243e+03,-2.002970376365159609e+03,-1.371944190939910186e+03,9.484992027282714844e+00,7.649187743663787842e-02,-6.501809358596801758e-01,2.970000000000000000e+02
-3.861211384650810942e+03,-3.634096461923796596e+03,-1.230018288740238859e+03,-1.628318333613071445e+03,-3.867729835564394307e+03,-3.898111185717410990e+03,-1.819007254400959937e+03,-1.452113315263166442e+03,9.484992027282714844e+00,7.649187743663787842e-02,-6.501809358596801758e-01,2.980000000000000000e+02
-3.823815577246659814e+03,-3.603274234884374891e+03,-1.240895730553229441e+03,-1.616769393157370359e+03,-3.834923672728284146e+03,-3.865563029370150616e+03,-1.753047436351036595e+03,-1.440985166109052443e+03,9.484992027282714844e+00,7.649187743663787842e-02,-6.501809358596801758e-01,2.990000000000000000e+02
-3.715396751927473815e+03,-3.499120238246137887e+03,-1.168972519652776100e+03,-1.669588906122455228e+03,-3.739176560703592259e+03,-3.756237359166912938e+03,-1.868483255059880321e+03,-1.329894731108783162e+03,9.484992027282714844e+00,7.649187743663787842e-02,-6.501809358596801758e-01,3.000000000000000000e+02
-3.614110740743679344e+03,-3.399307352149364306e+03,-1.094373994426969148e+03,-1.683362873822276015e+03,-3.642969234974712890e+03,-3.648932141296652844e+03,-1.977818277975817182e+03,-1.249142645756806814e+03,9.484992027282714844e+00,7.649187743663787842e-02,-6.501809358596801758e-01,3.010000000000000000e+02
-3.587982855511283560e+03,-3.378425939875458425e+03,-1.099339460576680722e+03,-1.608489325557075063e+03,-3.609022909886960406e+03,-3.618729353693597659e+03,-1.901893422293949698e+03,-1.286224538266373202e+03,9.484992027282714844e+00,7.649187743663787842e-02,-6.501809358596801758e-01,3.020000000000000000e+02
-3.600684781736876175e+03,-3.402690022307320760e+03,-1.154665796380635584e+03,-1.518198225594405812e+03,-3.613385963499531499e+03,-3.634025379913688084e+03,-1.717160007307305932e+03,-1.364852518281530138e+03,9.484992027282714844e+00,7.649187743663787842e-02,-6.501809358596801758e-01,3.030000000000000000e+02
-3.562388120164094289e+03,-3.374154102011627401e+03,-1.161810555689266039e+03,-1.506447686771396548e+03,-3.579531539882838842e+03,-3.601181795881388098e+03,-1.649421508783514582e+03,-1.352024350455443710e+03,9.484992027282714844e+00,7.649187743663787842e-02,-6.501809358596801758e-01,3.040000000000000000e+02
-3.455012046165204083e+03,-3.266927094394053711e+03,-1.090617052110585064e+03,-1.557439713541527453e+03,-3.483872138855385856e+03,-3.494029416153633065e+03,-1.761700263895254466e+03,-1.241709063616892308e+03,9.484992027282714844e+00,7.649187743663787842e-02,-6.501809358596801758e-01,3.050000000000000000e+02
-3.357179558873514907e+03,-3.163592459846080601e+03,-1.019898915953610413e+03,-1.568097352564032917e+03,-3.387096907199345878e+03,-3.390083137187015382e+03,-1.867410583801523899e+03,-1.161722872693186218e+03,9.484992027282714844e+00,7.649187743663787842e-02,-6.501809358596801758e-01,3.060000000000000000e+02
-3.334180992222522036e+03,-3.138990244153115782e+03,-1.026565527199367352e+03,-1.491411493560673989e+03,-3.350568361536570592e+03,-3.363915301145556441e+03,-1.788718872829333122e+03,-1.197282340734243917e+03,9.484992027282714844e+00,7.649187743663787842e-02,-6.501809358596801758e-01,3.070000000000000000e+02
-3.347140329514568293e+03,-3.156547033381641086e+03,-1.079676752603598288e+03,-1.401803122762426938e+03,-3.352969181406027928e+03,-3.384156476884112635e+03,-1.602193715825407708e+03,-1.274628512607523589e+03,9.484992027282714844e+00,7.649187743663787842e-02,-6.501809358596801758e-01,3.080000000000000000e+02
-3.307850228316685389e+03,-3.122654540486884798e+03,-1.084365193983092468e+03,-1.392776664583765523e+03,-3.319705480595424888e+03,-3.355804419777370640e+03,-1.533034537411076599e+03,-1.262687117696576024e+03,9.484992027282714844e+00,7.649187743663787842e-02,-6.501809358596801758e-01,3.090000000000000000e+02
-3.201238835437419766e+03,-3.018683964597388695e+03,-1.012143632278493897e+03,-1.448084157157038135e+03,-3.225002512720671803e+03,-3.250248961453660741e+03,-1.643365949890459888e+03,-1.152861706403640710e+03,9.484992027282714844e+00,7.649187743663787842e-02,-6.501809358596801758e-01,3.100000000000000000e+02
-3.105021120701181644e+03,-2.925343439030173613e+03,-9.396600107544072671e+02,-1.463230007563313848e+03,-3.128502565575006884e+03,-3.144648858020722400e+03,-1.746745483647078800e+03,-1.071275192404464178e+03,9.484992027282714844e+00,7.649187743663787842e-02,-6.501809358596801758e-01,3.110000000000000000e+02
-3.081504442912882951e+03,-2.909524212719908974e+03,-9.445161873422512144e+02,-1.388379420036035299e+03,-3.094599511877186160e+03,-3.115745308003693935e+03,-1.665703088222893712e+03,-1.105304752118539909e+03,9.484992027282714844e+00,7.649187743663787842e-02,-6.501809358596801758e-01,3.120000000000000000e+02
-3.092705353639415989e+03,-2.932259953224383935e+03,-9.993345093032839941e+02,-1.296693755105436139e+03,-3.102977572590669297e+03,-3.134066981153893721e+03,-1.477367358049516042e+03,-1.182281820795935346e+03,9.561484336853027344e+00,1.529837548732757568e-01,-5.354431271553039551e-01,3.130000000000000000e+02
-3.053975291185797687e+03,-2.901998211821639416e+03,-1.008133309291657497e+03,-1.283624727682592493e+03,-3.075026317450669012e+03,-3.105222316515460989e+03,-1.407284535751299700e+03,-1.169571428930448747e+03,9.561484336853027344e+00,1.529837548732757568e-01,-5.354431271553039551e-01,3.140000000000000000e+02
-2.950098050869113649e+03,-2.798579864401592204e+03,-9.376200164341098571e+02,-1.335885963232783979e+03,-2.982386660007094179e+03,-3.001395974347746233e+03,-1.517786568904033629e+03,-1.058933386889875692e+03,9.561484336853027344e+00,1.529837548732757568e-01,-5.354431271553039551e-01,3.150000000000000000e+02
-2.855708347262254392e+03,-2.700438345249833219e+03,-8.643292547484088573e+02,-1.350993703726871900e+03,-2.886862743724617758e+03,-2.900109899270435562e+03,-1.621810847432367154e+03,-9.785647476330232166e+02,9.561484336853027344e+00,1.529837548732757568e-01,-5.354431271553039551e-01,3.160000000000000000e+02
-2.833540756445509032e+03,-2.678380816533714096e+03,-8.694838433917793736e+02,-1.279658449273440056e+03,-2.854227836093781661e+03,-2.875708592106173455e+03,-1.542048965740992571e+03,-1.014790655275937752e+03,9.561484336853027344e+00,1.529837548732757568e-01,-5.354431271553039551e-01,3.170000000000000000e+02
-2.848697834888342186e+03,-2.699423942814762995e+03,-9.252943282053565781e+02,-1.193085979562456487e+03,-2.862396367375593400e+03,-2.895316407497743057e+03,-1.356083002898063569e+03,-1.092121663872349018e+03,9.561484336853027344e+00,1.529837548732757568e-01,-5.354431271553039551e-01,3.180000000000000000e+02
-2.815455190581567877e+03,-2.672401235842560709e+03,-9.329609333494445309e+02,-1.182941339364464511e+03,-2.832969028925232124e+03,-2.864806590132619021e+03,-1.288399271755108202e+03,-1.078534106346116459e+03,9.561484336853027344e+00,1.529837548732757568e-01,-5.354431271553039551e-01,3.190000000000000000e+02
-2.714201667299643304e+03,-2.574262129755210481e+03,-8.608851773463611607e+02,-1.234232577303941071e+03,-2.740972222180113022e+03,-2.759935067641992646e+03,-1.399569619401227101e+03,-9.682707991415409197e+02,9.561484336853027344e+00,1.529837548732757568e-01,-5.354431271553039551e-01,3.200000000000000000e+02
-2.619134952516629710e+03,-2.482360293166311749e+03,-7.888956285765088978e+02,-1.246627023073149758e+03,-2.649088130800788349e+03,-2.659850498352276190e+03,-1.502617964925695560e+03,-8.891551483995317540e+02,9.561484336853027344e+00,1.529837548732757568e-01,-5.354431271553039551e-01,3.210000000000000000e+02
-2.596600517577753635e+03,-2.465772989207009232e+03,-7.963242477460589726e+02,-1.173601303670548077e+03,-2.620117730651854799e+03,-2.637201823009050713e+03,-1.421792531726052403e+03,-9.259094806949833583e+02,9.561484336853027344e+00,1.529837548732757568e-01,-5.354431271553039551e-01,3.220000000000000000e+02
-2.612947903716958535e+03,-2.487323991338787891e+03,-8.517714258233681903e+02,-1.086878078087247559e+03,-2.630455226805966959e+03,-2.657754978514800314e+03,-1.235133288394208648e+03,-1.003732880175437458e+03,9.561484336853027344e+00,1.529837548732757568e-01,-5.354431271553039551e-01,3.230000000000000000e+02
-2.580766288632210490e+03,-2.455503233358169382e+03,-8.578403621303659747e+02,-1.077201536389155081e+03,-2.603332337340296363e+03,-2.627720696819858858e+03,-1.166394769646329223e+03,-9.914436031774566800e+02,9.561484336853027344e+00,1.529837548732757568e-01,-5.354431271553039551e-01,3.240000000000000000e+02
-2.480332219481053471e+03,-2.353579809811184532e+03,-7.861417190750471491e+02,-1.128344465551250323e+03,-2.514425844159857661e+03,-2.523128213184641936e+03,-1.276112959974241676e+03,-8.819464569997107901e+02,9.561484336853027344e+00,1.529837548732757568e-01,-5.354431271553039551e-01,3.250000000000000000e+02
-2.387215413210273255e+03,-2.263558031109805597e+03,-7.154049711600709998e+02,-1.138847097378482431e+03,-2.424595607117389591e+03,-2.423716271711920854e+03,-1.378172622228077671e+03,-8.024988738611209556e+02,9.561484336853027344e+00,1.529837548732757568e-01,-5.354431271553039551e-01,3.260000000000000000e+02
-2.367556430419463140e+03,-2.251716022261320177e+03,-7.222398409820780216e+02,-1.062803262221379555e+03,-2.395554862814322405e+03,-2.404127342691477679e+03,-1.297483961689860735e+03,-8.397475012076392886e+02,9.561484336853027344e+00,1.529837548732757568e-01,-5.354431271553039551e-01,3.270000000000000000e+02
-2.386740500912121206e+03,-2.276954746834857360e+03,-7.759392148004044429e+02,-9.747238015813236416e+02,-2.404885923355228442e+03,-2.431137630776102014e+03,-1.112161048459543963e+03,-9.198906594281397702e+02,9.561484336853027344e+00,1.529837548732757568e-01,-5.354431271553039551e-01,3.280000000000000000e+02
-2.357375057777273469e+03,-2.248335635086441471e+03,-7.809457890701742144e+02,-9.671965661679314508e+02,-2.377348449141034507e+03,-2.408981584521723562e+03,-1.045166392821454792e+03,-9.103593057089783542e+02,9.561484336853027344e+00,1.529837548732757568e-01,-5.354431271553039551e-01,3.290000000000000000e+02
-2.259380365209239244e+03,-2.149547173027804092e+03,-7.082567603756106109e+02,-1.022840861245873384e+03,-2.289180984311293287e+03,-2.311117799572908552e+03,-1.155495525927843119e+03,-8.032310703548682795e+02,9.561484336853027344e+00,1.529837548732757568e-01,-5.354431271553039551e-01,3.300000000000000000e+02
-2.167312907877021644e+03,-2.059725752508915321e+03,-6.360546209433814511e+02,-1.038280959438525315e+03,-2.201430603931716178e+03,-2.216122113447512675e+03,-1.256689342114870669e+03,-7.260509216912905686e+02,9.561484336853027344e+00,1.529837548732757568e-01,-5.354431271553039551e-01,3.310000000000000000e+02
-2.147877448975610605e+03,-2.045028221790202224e+03,-6.430357846172919380e+02,-9.666150141536418232e+02,-2.175747962535475381e+03,-2.197572350482965703e+03,-1.175650478925534117e+03,-7.643182504934302415e+02,9.561484336853027344e+00,1.529837548732757568e-01,-5.354431271553039551e-01,3.320000000000000000e+02
-2.168097772881315905e+03,-2.069279463401973771e+03,-6.999387110287025280e+02,-8.808070950832334347e+02,-2.188834281165887660e+03,-2.221854839951869508e+03,-9.920584316896711243e+02,-8.427478157549994648e+02,9.561484336853027344e+00,1.529837548732757568e-01,-5.354431271553039551e-01,3.330000000000000000e+02
-2.140663688724132953e+03,-2.043591354478317953e+03,-7.092507800009261700e+02,-8.717448407644915278e+02,-2.164322844557987992e+03,-2.196115429683472030e+03,-9.275134658929309808e+02,-8.303776654999564926e+02,9.561484336853027344e+00,1.529837548732757568e-01,-5.354431271553039551e-01,3.340000000000000000e+02
-2.044902501551419846e+03,-1.947578378166821494e+03,-6.396505951753642876e+02,-9.233860464496683562e+02,-2.078313290817903180e+03,-2.097727403993281769e+03,-1.039237838363420451e+03,-7.222409942744961882e+02,9.561484336853027344e+00,1.529837548732757568e-01,-5.354431271553039551e-01,3.350000000000000000e+02
-1.956155520351792802e+03,-1.858349832183324907e+03,-5.693478694004261342e+02,-9.361779887085576775e+02,-1.992331478527084982e+03,-2.004883131989874528e+03,-1.141857652151018556e+03,-6.455408099111482443e+02,9.561484336853027344e+00,1.529837548732757568e-01,-5.354431271553039551e-01,3.360000000000000000e+02
-1.941286567593815562e+03,-1.845753159188607242e+03,-5.771264551730346284e+02,-8.646563706901579280e+02,-1.967836544630801654e+03,-1.987822074229479767e+03,-1.062614953858734225e+03,-6.831927391298268049e+02,9.561484336853027344e+00,1.529837548732757568e-01,-5.354431271553039551e-01,3.370000000000000000e+02
-1.965193854175820888e+03,-1.874988692429244111e+03,-6.325404978218684846e+02,-7.796494314419542206e+02,-1.981444497854783549e+03,-2.012671702904037375e+03,-8.795797941598502803e+02,-7.600555103910919570e+02,9.561484336853027344e+00,1.529837548732757568e-01,-5.354431271553039551e-01,3.380000000000000000e+02
-1.939459852201456670e+03,-1.852506725329891196e+03,-6.388725271290968521e+02,-7.705951346976798959e+02,-1.958513429516293400e+03,-1.989214833629564964e+03,-8.132737440850396524e+02,-7.479565436143348052e+02,9.561484336853027344e+00,1.529837548732757568e-01,-5.354431271553039551e-01,3.390000000000000000e+02
-1.845237288165022619e+03,-1.755352034785180876e+03,-5.683760227177772322e+02,-8.226544077607759391e+02,-1.877005004465638194e+03,-1.894794775199479773e+03,-9.230019411998364376e+02,-6.425207487972438685e+02,9.561484336853027344e+00,1.529837548732757568e-01,-5.354431271553039551e-01,3.400000000000000000e+02
-1.758844397199551167e+03,-1.664866627556031744e+03,-5.006192671150092792e+02,-8.370532678820018191e+02,-1.796983960915662465e+03,-1.804455992337418138e+03,-1.025009307861015259e+03,-5.680545864282466937e+02,9.561484336853027344e+00,1.529837548732757568e-01,-5.354431271553039551e-01,3.410000000000000000e+02
-1.745459229068714194e+03,-1.655144255725193943e+03,-5.112065042182730394e+02,-7.670582543444397743e+02,-1.776314991599101631e+03,-1.787045749365825031e+03,-9.459587247859235504e+02,-6.049555438944589696e+02,9.561484336853027344e+00,1.529837548732757568e-01,-5.354431271553039551e-01,3.420000000000000000e+02
-1.769788398433120165e+03,-1.690145892269945762e+03,-5.669696315694091027e+02,-6.827617042402416700e+02,-1.790653924786936841e+03,-1.810369099635776365e+03,-7.625192738220503088e+02,-6.787021715440932894e+02,9.561484336853027344e+00,1.529837548732757568e-01,-5.354431271553039551e-01,3.430000000000000000e+02
-1.746209435000513622e+03,-1.673188664657929621e+03,-5.726264814153037150e+02,-6.747299746460776078e+02,-1.767555168682752992e+03,-1.785814307526787161e+03,-6.959504199918374070e+02,-6.634928797280590516e+02,9.370253562927246094e+00,1.912296712398529053e-01,-6.501809358596801758e-01,3.440000000000000000e+02
-1.656834923101989261e+03,-1.580071270683023613e+03,-5.025935344427125528e+02,-7.288145741381958942e+02,-1.686500751145831600e+03,-1.691249715294776252e+03,-8.063017343155952403e+02,-5.567537721998996858e+02,9.370253562927246094e+00,1.912296712398529053e-01,-6.501809358596801758e-01,3.450000000000000000e+02
-1.575231317600599141e+03,-1.491201553142411285e+03,-4.358256906231981702e+02,-7.452547807892988203e+02,-1.607600313461072801e+03,-1.602916771816773689e+03,-9.090971180119886412e+02,-4.834375918502955756e+02,9.370253562927246094e+00,1.912296712398529053e-01,-6.501809358596801758e-01,3.460000000000000000e+02
-1.564949880551510432e+03,-1.479345192573906388e+03,-4.466416974524909165e+02,-6.766405538228718797e+02,-1.589548593536717817e+03,-1.591223195227088581e+03,-8.309343836579864728e+02,-5.238342602505836112e+02,9.370253562927246094e+00,1.912296712398529053e-01,-6.501809358596801758e-01,3.470000000000000000e+02
-1.592449302861074102e+03,-1.509833711333434621e+03,-5.022202728776683216e+02,-5.939458747052558465e+02,-1.608750119396929222e+03,-1.623379253240578691e+03,-6.493230435168807162e+02,-6.025704734419632587e+02,9.370253562927246094e+00,1.912296712398529053e-01,-6.501809358596801758e-01,3.480000000000000000e+02
-1.573140756124819745e+03,-1.490793613714587991e+03,-5.076143986607203260e+02,-5.886319555010122713e+02,-1.590960741222472279e+03,-1.607574833896265773e+03,-5.845336523846781347e+02,-5.920445202016308031e+02,9.370253562927246094e+00,1.912296712398529053e-01,-6.501809358596801758e-01,3.490000000000000000e+02
-1.487429639468144160e+03,-1.401387225022546772e+03,-4.363600868117791833e+02,-6.461274877786272555e+02,-1.513142330276212306e+03,-1.518642430721534765e+03,-6.943506817503512139e+02,-4.877185912635177374e+02,9.370253562927246094e+00,1.912296712398529053e-01,-6.501809358596801758e-01,3.500000000000000000e+02
-1.407761669057821564e+03,-1.319739054346086050e+03,-3.672561390172559186e+02,-6.657380399003086495e+02,-1.435456706276992918e+03,-1.432544680164501187e+03,-7.948010848897538381e+02,-4.141749767977598822e+02,9.370253562927246094e+00,1.912296712398529053e-01,-6.501809358596801758e-01,3.510000000000000000e+02
-1.398563599077446270e+03,-1.313783914133855433e+03,-3.764047874472889816e+02,-5.995725946775201010e+02,-1.417982594954410160e+03,-1.421566727016193909e+03,-7.158768575252033770e+02,-4.532783868403785164e+02,9.370253562927246094e+00,1.912296712398529053e-01,-6.501809358596801758e-01,3.520000000000000000e+02
-1.426534305094261072e+03,-1.347858365404987126e+03,-4.329704655937239295e+02,-5.182124301824078429e+02,-1.437121852077332733e+03,-1.454235443091150955e+03,-5.367560578305419767e+02,-5.309440399094382883e+02,9.370253562927246094e+00,1.912296712398529053e-01,-6.501809358596801758e-01,3.530000000000000000e+02
-1.406446420306601794e+03,-1.332601620167588408e+03,-4.420962729810416931e+02,-5.124369169713318115e+02,-1.418359412224359403e+03,-1.438428330349932367e+03,-4.757753225424530683e+02,-5.190798773225033074e+02,9.370253562927246094e+00,1.912296712398529053e-01,-6.501809358596801758e-01,3.540000000000000000e+02
-1.319825729413394583e+03,-1.246901075274239702e+03,-3.753565276174922474e+02,-5.677057868024858180e+02,-1.339973791877651820e+03,-1.348738139993351069e+03,-5.883643596992042148e+02,-4.127754869540076470e+02,9.370253562927246094e+00,1.912296712398529053e-01,-6.501809358596801758e-01,3.550000000000000000e+02
-1.241240759045736922e+03,-1.165492115696659312e+03,-3.091417358789185528e+02,-5.853184759587820736e+02,-1.263455364988090878e+03,-1.262110494590553571e+03,-6.904891848202387337e+02,-3.380787581724216579e+02,9.370253562927246094e+00,1.912296712398529053e-01,-6.501809358596801758e-01,3.560000000000000000e+02
-1.234880053709071944e+03,-1.156820646957035933e+03,-3.185664579207368661e+02,-5.202100802412387566e+02,-1.248496835270532756e+03,-1.251646329887022148e+03,-6.127632222060201457e+02,-3.781852176751926891e+02,9.370253562927246094e+00,1.912296712398529053e-01,-6.501809358596801758e-01,3.570000000000000000e+02
-1.265458746852775221e+03,-1.190313978349106037e+03,-3.734641548811705434e+02,-4.432019764036231209e+02,-1.270769201963586966e+03,-1.285656459147758142e+03,-4.339767636376782320e+02,-4.582998606730398024e+02,9.370253562927246094e+00,1.912296712398529053e-01,-6.501809358596801758e-01,3.580000000000000000e+02
-1.247278738034176058e+03,-1.178197569309835671e+03,-3.800340592453721911e+02,-4.416174157120694872e+02,-1.256068946136729210e+03,-1.272326332979617291e+03,-3.721600094198802253e+02,-4.495459031644641072e+02,9.370253562927246094e+00,1.912296712398529053e-01,-6.501809358596801758e-01,3.590000000000000000e+02
-1.162565491181172547e+03,-1.095794427924513002e+03,-3.108229922016253113e+02,-4.976658620753005380e+02,-1.182985313760334975e+03,-1.187431548650769400e+03,-4.841492437561100814e+02,-3.477111260510937427e+02,9.370253562927246094e+00,1.912296712398529053e-01,-6.501809358596801758e-01,3.600000000000000000e+02
-1.085455290896068618e+03,-1.016664925883342221e+03,-2.434629947612920660e+02,-5.133178960443474352e+02,-1.112284194245723484e+03,-1.107369021794984292e+03,-5.886037010878499132e+02,-2.784983727170038037e+02,9.370253562927246094e+00,1.912296712398529053e-01,-6.501809358596801758e-01,3.610000000000000000e+02
-1.079536570457727066e+03,-1.011659418990137056e+03,-2.536849508077502833e+02,-4.460349813943103072e+02,-1.102481988885840110e+03,-1.102186943520435307e+03,-5.153181991698220372e+02,-3.223394013163560885e+02,9.370253562927246094e+00,1.912296712398529053e-01,-6.501809358596801758e-01,3.620000000000000000e+02
-1.110626544773011119e+03,-1.049300341000649496e+03,-3.104979309917252976e+02,-3.672269977092146291e+02,-1.128266287715166982e+03,-1.138060181709144672e+03,-3.408752043311542366e+02,-4.028561991982060135e+02,9.370253562927246094e+00,1.912296712398529053e-01,-6.501809358596801758e-01,3.630000000000000000e+02
-1.094356271569718956e+03,-1.038209192980888474e+03,-3.193630063876335043e+02,-3.638891139708211995e+02,-1.114829868894623360e+03,-1.124179612512227322e+03,-2.815826250027603237e+02,-3.932192735509379418e+02,9.370253562927246094e+00,1.912296712398529053e-01,-6.501809358596801758e-01,3.640000000000000000e+02
-1.012686341841676040e+03,-9.549238716636973550e+02,-2.529850894404298742e+02,-4.195884049972664798e+02,-1.040996319380654313e+03,-1.038285570437961724e+03,-3.943620649399381364e+02,-2.916614660640407237e+02,9.523238182067871094e+00,3.824593871831893921e-02,-6.884268522262573242e-01,3.650000000000000000e+02
-9.390486099633999402e+02,-8.775441129997707321e+02,-1.880047373191191582e+02,-4.375327818878431572e+02,-9.686873084224207560e+02,-9.577021211658575339e+02,-4.979125671653746394e+02,-2.236751928540179506e+02,9.523238182067871094e+00,3.824593871831893921e-02,-6.884268522262573242e-01,3.660000000000000000e+02
-9.367779369283962296e+02,-8.766423047725256765e+02,-1.980947366991822491e+02,-3.736665333015625947e+02,-9.577707584612071514e+02,-9.534316546138506965e+02,-4.234112875190039631e+02,-2.687211507405590964e+02,9.523238182067871094e+00,3.824593871831893921e-02,-6.884268522262573242e-01,3.670000000000000000e+02
-9.705851561077797669e+02,-9.169670581190075609e+02,-2.529874061443333630e+02,-2.972702463532623369e+02,-9.841991596653751913e+02,-9.929441235756748938e+02,-2.484586793477792526e+02,-3.508512999331651372e+02,9.523238182067871094e+00,3.824593871831893921e-02,-6.884268522262573242e-01,3.680000000000000000e+02
-9.545195471843326231e+02,-9.072186677729987423e+02,-2.618447718995957985e+02,-2.954630289662600262e+02,-9.744183645187877119e+02,-9.849848167472155183e+02,-1.898022891491418704e+02,-3.435602049979061121e+02,9.523238182067871094e+00,3.824593871831893921e-02,-6.884268522262573242e-01,3.690000000000000000e+02
-8.712930441488570068e+02,-8.263024027812571148e+02,-1.989305776661203708e+02,-3.525939953264241922e+02,-9.072935558433964616e+02,-9.046904261624731589e+02,-3.034246532751421910e+02,-2.438005119823064888e+02,9.523238182067871094e+00,3.824593871831893921e-02,-6.884268522262573242e-01,3.700000000000000000e+02
-7.975426574952798546e+02,-7.508126181352054118e+02,-1.387717230226771790e+02,-3.713356567992304917e+02,-8.423088874181412393e+02,-8.272692892499180743e+02,-4.071440770917688496e+02,-1.756823961274058092e+02,9.523238182067871094e+00,3.824593871831893921e-02,-6.884268522262573242e-01,3.710000000000000000e+02
-7.987107842581754085e+02,-7.484746931865083752e+02,-1.531651519887964241e+02,-3.074778741785921738e+02,-8.360727156422362896e+02,-8.239111568400985561e+02,-3.329064933645131532e+02,-2.189279004305280978e+02,9.523238182067871094e+00,3.824593871831893921e-02,-6.884268522262573242e-01,3.720000000000000000e+02
-8.386647774712619139e+02,-7.859120645213915850e+02,-2.111960685947196907e+02,-2.315650702418060973e+02,-8.635669156720105093e+02,-8.636138734965643380e+02,-1.592829186653980287e+02,-2.990803811664736713e+02,9.523238182067871094e+00,3.824593871831893921e-02,-6.884268522262573242e-01,3.730000000000000000e+02
-8.295336125212706975e+02,-7.761586996941623511e+02,-2.203864036468512495e+02,-2.311349175260256743e+02,-8.526886570314454730e+02,-8.564872099130807328e+02,-1.022206077744485810e+02,-2.908690338083761162e+02,9.523238182067871094e+00,3.824593871831893921e-02,-6.884268522262573242e-01,3.740000000000000000e+02
-7.524901811971503776e+02,-6.991377181145799113e+02,-1.541595842272217851e+02,-2.894698850155255059e+02,-7.837787731359931058e+02,-7.782081775089973235e+02,-2.162789384273492033e+02,-1.912450749071576865e+02,9.523238182067871094e+00,3.824593871831893921e-02,-6.884268522262573242e-01,3.750000000000000000e+02
-6.822997023722855374e+02,-6.296850760101442575e+02,-8.992240277628297918e+01,-3.091935332098582876e+02,-7.171966529281344265e+02,-7.034441754765139194e+02,-3.194629089610971278e+02,-1.234250806677082437e+02,9.523238182067871094e+00,3.824593871831893921e-02,-6.884268522262573242e-01,3.760000000000000000e+02
-6.828043413694176706e+02,-6.340042520180868451e+02,-1.027606535932718543e+02,-2.473659823560301447e+02,-7.107925872022460680e+02,-7.021377155345689971e+02,-2.452308537559147226e+02,-1.667966544505616184e+02,9.523238182067871094e+00,3.824593871831893921e-02,-6.884268522262573242e-01,3.770000000000000000e+02
-7.193871580896666273e+02,-6.767074398175172973e+02,-1.612547772526522749e+02,-1.743800655281884247e+02,-7.402422592606963008e+02,-7.424440898152097361e+02,-7.312779511323606130e+01,-2.474735507203513407e+02,9.523238182067871094e+00,3.824593871831893921e-02,-6.884268522262573242e-01,3.780000000000000000e+02
-7.087056982858630363e+02,-6.681773930007620947e+02,-1.711457059302920243e+02,-1.758145951420010533e+02,-7.321233473188694916e+02,-7.347560099791953689e+02,-1.868525816066539846e+01,-2.400993269415921532e+02,9.523238182067871094e+00,3.824593871831893921e-02,-6.884268522262573242e-01,3.790000000000000000e+02
-6.344272414676233893e+02,-5.885352746666831081e+02,-1.062075620203686412e+02,-2.338347591915880912e+02,-6.651854364924874972e+02,-6.560024793016418698e+02,-1.352145202074316330e+02,-1.406149588063417468e+02,9.523238182067871094e+00,3.824593871831893921e-02,-6.884268522262573242e-01,3.800000000000000000e+02
-5.686903645917482208e+02,-5.164509361143718706e+02,-4.411322790970734786e+01,-2.517235785828088410e+02,-6.004136203811067389e+02,-5.823859291929329629e+02,-2.398471978913003113e+02,-7.241408486143336631e+01,9.523238182067871094e+00,3.824593871831893921e-02,-6.884268522262573242e-01,3.810000000000000000e+02
-5.672287628637423040e+02,-5.168664589430409251e+02,-5.725219650061626453e+01,-1.858606303744600154e+02,-5.925368243844932294e+02,-5.798730373765574768e+02,-1.659983838515181560e+02,-1.147252828512355336e+02,9.523238182067871094e+00,3.824593871831893921e-02,-6.884268522262573242e-01,3.820000000000000000e+02
-6.003602837349026231e+02,-5.585247570799838286e+02,-1.148379013613666757e+02,-1.089999279475377989e+02,-6.208110393522874801e+02,-6.195153850866481662e+02,5.755500907238456421e+00,-1.949388152352985344e+02,9.523238182067871094e+00,3.824593871831893921e-02,-6.884268522262573242e-01,3.830000000000000000e+02
-5.866313543969736202e+02,-5.502978524791978998e+02,-1.243005659971822752e+02,-1.077930623345018830e+02,-6.101172689855666249e+02,-6.093487332643417176e+02,5.987081164290430024e+01,-1.857606141934229527e+02,9.523238182067871094e+00,3.824593871831893921e-02,-6.884268522262573242e-01,3.840000000000000000e+02
-5.092270450112700928e+02,-4.712374456475445186e+02,-6.013026629202067852e+01,-1.652598161779533257e+02,-5.395834229708270868e+02,-5.261098076246926212e+02,-5.693123935221228749e+01,-8.358565003793773940e+01,9.523238182067871094e+00,3.824593871831893921e-02,-6.884268522262573242e-01,3.850000000000000000e+02
-4.397363411968108267e+02,-3.987078385980566964e+02,1.161967153224395588e+00,-1.841237763610115508e+02,-4.714163399107783334e+02,-4.480934774188208394e+02,-1.627049266546528088e+02,-1.477423996466677636e+01,9.523238182067871094e+00,3.824593871831893921e-02,-6.884268522262573242e-01,3.860000000000000000e+02
-4.404812705910153454e+02,-4.005652214452202315e+02,-1.323454405878146645e+01,-1.208051566119684139e+02,-4.642084026710799662e+02,-4.471711502348771319e+02,-9.188248529854172375e+01,-6.074297579126869095e+01,9.523238182067871094e+00,3.824593871831893921e-02,-6.884268522262573242e-01,3.870000000000000000e+02
-4.774904390012234217e+02,-4.408448125336290104e+02,-7.125174298854835797e+01,-4.544154777725634631e+01,-4.920641744210952311e+02,-4.894835407012433279e+02,7.646327521491912194e+01,-1.446437762395362370e+02,9.523238182067871094e+00,3.824593871831893921e-02,-6.884268522262573242e-01,3.880000000000000000e+02
-4.649893694485217566e+02,-4.296593431685760152e+02,-7.956284028947993647e+01,-4.502119789913558634e+01,-4.815201492795386002e+02,-4.825713223322236445e+02,1.287287085475836648e+02,-1.378591136150134844e+02,9.523238182067871094e+00,3.824593871831893921e-02,-6.884268522262573242e-01,3.890000000000000000e+02
-3.835297637833573390e+02,-3.485032545712892897e+02,-1.281683419387263712e+01,-1.032524429680197500e+02,-4.131393540513672633e+02,-4.028921760989469476e+02,1.208772098568442743e+01,-3.780441983421042096e+01,9.523238182067871094e+00,3.824593871831893921e-02,-5.736890435218811035e-01,3.900000000000000000e+02
-3.087675768193294061e+02,-2.768175118074286729e+02,4.999078199975338066e+01,-1.229602509756514337e+02,-3.471604652681853622e+02,-3.272150243815267459e+02,-9.279664740088628605e+01,2.959779105213965522e+01,9.523238182067871094e+00,3.824593871831893921e-02,-5.736890435218811035e-01,3.910000000000000000e+02
-3.076554295464884490e+02,-2.815000811859426904e+02,3.421887441541184671e+01,-6.070340658982604509e+01,-3.401358092106966069e+02,-3.258343881202745251e+02,-2.200669816626759712e+01,-1.535875435516936705e+01,9.523238182067871094e+00,3.824593871831893921e-02,-5.736890435218811035e-01,3.920000000000000000e+02
