F3,F4,C3,C4,P3,P4,Cz,Pz,Accel_x,Accel_y,Accel_z,Sample
1.182343112304806709e-11,-3.456079866737127304e-11,-2.182787284255027771e-11,1.409716787748038769e-11,5.911715561524033546e-12,-1.682565198279917240e-11,4.092726157978177071e-11,2.273736754432320595e-12,0.000000000000000000e+00,0.000000000000000000e+00,0.000000000000000000e+00,0.000000000000000000e+00
8.110953825714487175e+04,7.264846020233099989e+04,5.344772153588687070e+04,6.525773282375023700e+04,8.065966755153008853e+04,7.842139479504726478e+04,7.110167013013269752e+04,5.524919622801313380e+04,9.484992027282714844e+00,2.294756323099136353e-01,-3.059675097465515137e-01,1.000000000000000000e+00
1.065286820918247104e+05,9.542326225779659580e+04,7.013820879090460949e+04,8.562302036131318891e+04,1.059846815544904530e+05,1.031111512129786570e+05,9.333327417125803186e+04,7.250230602797669417e+04,9.484992027282714844e+00,2.294756323099136353e-01,-3.059675097465515137e-01,2.000000000000000000e+00
9.262479466727320687e+04,8.297173664745033602e+04,6.093219407822333596e+04,7.423108007477127830e+04,9.219236462029196264e+04,8.978900191360760073e+04,8.098917963514759322e+04,6.300045479842327768e+04,9.484992027282714844e+00,2.294756323099136353e-01,-3.059675097465515137e-01,3.000000000000000000e+00
8.625268072211484832e+04,7.724376966364713735e+04,5.677614453869625868e+04,6.864768826011300553e+04,8.581673953516899201e+04,8.361693093724259234e+04,7.517022678528678080e+04,5.871767181227103720e+04,9.484992027282714844e+00,2.294756323099136353e-01,-3.059675097465515137e-01,4.000000000000000000e+00
9.375547278152979561e+04,8.392603422009872156e+04,6.178454070222474547e+04,7.382963634976930916e+04,9.321142068068707886e+04,9.078136024626213475e+04,8.154570291170320706e+04,6.386934579749470868e+04,9.484992027282714844e+00,2.294756323099136353e-01,-3.059675097465515137e-01,5.000000000000000000e+00
9.455451651996948931e+04,8.461143447233115148e+04,6.232847303763108357e+04,7.343944854609780305e+04,9.397068623525333533e+04,9.150657400975948258e+04,8.196608528643086902e+04,6.438391054764666478e+04,9.484992027282714844e+00,2.294756323099136353e-01,-3.059675097465515137e-01,6.000000000000000000e+00
8.841442130107352568e+04,7.910559975790785393e+04,5.830873871049479203e+04,6.786891857319274277e+04,8.783498796079811291e+04,8.556050548535975395e+04,7.600018378145499446e+04,6.022032331282506493e+04,9.484992027282714844e+00,2.294756323099136353e-01,-3.059675097465515137e-01,7.000000000000000000e+00
8.814468453396765108e+04,7.887365751730193733e+04,5.822625652660639025e+04,6.758981482397843502e+04,8.750843182480949326e+04,8.527085515541967470e+04,7.490418232066038763e+04,6.016183095828301157e+04,9.484992027282714844e+00,2.294756323099136353e-01,-3.059675097465515137e-01,8.000000000000000000e+00
9.138249800066734315e+04,8.177826550567889353e+04,6.046848012825222395e+04,7.006322399875718111e+04,9.067426366969471565e+04,8.836660043693020998e+04,7.689105970004347910e+04,6.246583249364809308e+04,9.484992027282714844e+00,2.294756323099136353e-01,-3.059675097465515137e-01,9.000000000000000000e+00
8.978091285837697797e+04,8.033333368367097864e+04,5.946452985149085725e+04,6.804902365322648257e+04,8.906479515745298704e+04,8.680519745167020301e+04,7.479228706158940622e+04,6.135536104945257830e+04,9.484992027282714844e+00,2.294756323099136353e-01,-3.059675097465515137e-01,1.000000000000000000e+01
8.667194791481587163e+04,7.753555925077406573e+04,5.744030777646235947e+04,6.472476819067935139e+04,8.596582913789291342e+04,8.378675780322594801e+04,7.142799044961406616e+04,5.920896237765691330e+04,9.484992027282714844e+00,2.294756323099136353e-01,-3.059675097465515137e-01,1.100000000000000000e+01
8.730139621091293520e+04,7.810284411578402796e+04,5.791976526253254269e+04,6.508895611242848099e+04,8.656177744916916708e+04,8.437081286558542342e+04,7.123714888179994887e+04,5.972001388755854714e+04,9.484992027282714844e+00,2.294756323099136353e-01,-3.059675097465515137e-01,1.200000000000000000e+01
8.826942317109522992e+04,7.899011131747360923e+04,5.866265034844129696e+04,6.613960002515644010e+04,8.748483383996081830e+04,8.529293170065774757e+04,7.108666314707341371e+04,6.051770749318269372e+04,9.484992027282714844e+00,2.294756323099136353e-01,-3.059675097465515137e-01,1.300000000000000000e+01
8.657250007454588194e+04,7.748455789814020682e+04,5.763917357816712320e+04,6.452278745016043104e+04,8.577246052819865872e+04,8.364972535673568200e+04,6.841506280646121013e+04,5.943140903918809636e+04,9.484992027282714844e+00,2.294756323099136353e-01,-3.059675097465515137e-01,1.400000000000000000e+01
8.516605472362674482e+04,7.621754475049674511e+04,5.676917387381512526e+04,6.251278470341272623e+04,8.436404366891979589e+04,8.227393337635206990e+04,6.628904003292905691e+04,5.846185271416424075e+04,9.484992027282714844e+00,2.294756323099136353e-01,-3.059675097465515137e-01,1.500000000000000000e+01
8.547416390562952438e+04,7.648006613447816926e+04,5.701010664192270633e+04,6.204310729464476026e+04,8.465977298231332679e+04,8.254422181476962578e+04,6.607781140264004353e+04,5.866825591488386272e+04,9.484992027282714844e+00,2.294756323099136353e-01,-3.059675097465515137e-01,1.600000000000000000e+01
8.522354277996382734e+04,7.626329092471793410e+04,5.690174663142656209e+04,6.166397237990480062e+04,8.438289280957219307e+04,8.228543395113920269e+04,6.501397746899786580e+04,5.856147307216922491e+04,9.484992027282714844e+00,2.294756323099136353e-01,-3.059675097465515137e-01,1.700000000000000000e+01
8.401256374092437909e+04,7.520599191174477164e+04,5.619370158852804161e+04,6.073927050628923462e+04,8.313711917524121236e+04,8.111314910656951542e+04,6.244915197877762694e+04,5.784057452714697138e+04,9.484992027282714844e+00,2.294756323099136353e-01,-3.059675097465515137e-01,1.800000000000000000e+01
8.338709366955974838e+04,7.466139601750744623e+04,5.587498994014628988e+04,6.026964505492671742e+04,8.248700053945685795e+04,8.050881632014576462e+04,6.077085170873090101e+04,5.748992743946880364e+04,9.484992027282714844e+00,2.294756323099136353e-01,-3.059675097465515137e-01,1.900000000000000000e+01
8.318812252681369137e+04,7.447127869490315788e+04,5.580059035931026301e+04,6.000898209757619770e+04,8.228451065063507122e+04,8.030596649223219720e+04,6.017502370760210761e+04,5.736024861505464651e+04,9.484992027282714844e+00,2.294756323099136353e-01,-3.059675097465515137e-01,2.000000000000000000e+01
8.251496671766319196e+04,7.385348086367826909e+04,5.538323205847806821e+04,5.903187454444453033e+04,8.160362659819336841e+04,7.962882912334417051e+04,5.866489925347623648e+04,5.687373292705439962e+04,9.484992027282714844e+00,2.294756323099136353e-01,-3.059675097465515137e-01,2.100000000000000000e+01
8.172244886554010736e+04,7.315516408896110079e+04,5.490770994298820733e+04,5.789862248884014116e+04,8.078136436390354356e+04,7.883716938472670154e+04,5.659420716602051107e+04,5.636617960579611099e+04,9.484992027282714844e+00,2.294756323099136353e-01,-3.059675097465515137e-01,2.200000000000000000e+01
8.120778207245522935e+04,7.272399955577759829e+04,5.465934119688170904e+04,5.754486982723029359e+04,8.024181698919109476e+04,7.833837157915810531e+04,5.589781472253210814e+04,5.613639658795111609e+04,9.484992027282714844e+00,2.294756323099136353e-01,-3.059675097465515137e-01,2.300000000000000000e+01
8.068312052297222544e+04,7.227069621660173289e+04,5.440449735909805167e+04,5.746644903996168432e+04,7.971037483913550386e+04,7.783736337096810166e+04,5.556568702115166525e+04,5.587117266438540537e+04,9.484992027282714844e+00,2.294756323099136353e-01,-3.059675097465515137e-01,2.400000000000000000e+01
8.011070697071270843e+04,7.175126605765109707e+04,5.406963933673753490e+04,5.684290559021800436e+04,7.912363735318911495e+04,7.726119740610387817e+04,5.326875605787226232e+04,5.544461836149456940e+04,9.484992027282714844e+00,2.294756323099136353e-01,-3.059675097465515137e-01,2.500000000000000000e+01
7.953810324783083342e+04,7.122916961805229948e+04,5.370948440770247544e+04,5.616049442621242633e+04,7.853479199875651102e+04,7.667481237122864695e+04,5.069105526660585019e+04,5.500134728521661600e+04,9.484992027282714844e+00,2.294756323099136353e-01,-3.059675097465515137e-01,2.600000000000000000e+01
7.873820611971804465e+04,7.052357591251905251e+04,5.323379844330345804e+04,5.608829044507053914e+04,7.774343972772237612e+04,7.590495197901292704e+04,5.081689401401326177e+04,5.454637576980586891e+04,9.484992027282714844e+00,2.294756323099136353e-01,-3.059675097465515137e-01,2.700000000000000000e+01
7.806560256482378463e+04,6.995112529912265018e+04,5.287525415853891900e+04,5.587047885569583013e+04,7.706112124122313980e+04,7.526803262956137769e+04,5.112519368716875761e+04,5.422424773613127763e+04,9.484992027282714844e+00,2.294756323099136353e-01,-3.059675097465515137e-01,2.800000000000000000e+01
7.809281337292074750e+04,7.000018342942470917e+04,5.295693460604763823e+04,5.479048413751579210e+04,7.701902337090301444e+04,7.526244477230455959e+04,4.783885545448393532e+04,5.422696701509586273e+04,9.484992027282714844e+00,2.294756323099136353e-01,-3.059675097465515137e-01,2.900000000000000000e+01
7.769553351799458324e+04,6.963772718466882361e+04,5.273051076664024004e+04,5.415427654118735518e+04,7.660679678961259197e+04,7.485551308795413934e+04,4.556010094303623919e+04,5.390554006526050216e+04,9.484992027282714844e+00,2.294756323099136353e-01,-3.059675097465515137e-01,3.000000000000000000e+01
7.512148327060615702e+04,6.729609859942314506e+04,5.109761592583602032e+04,5.568902235630427458e+04,7.421637827346306585e+04,7.246110982401452202e+04,5.233895113399637921e+04,5.238289731262573332e+04,9.484992027282714844e+00,2.294756323099136353e-01,-3.059675097465515137e-01,3.100000000000000000e+01
7.124512736146188399e+04,6.379223301165546582e+04,4.865804280249270960e+04,5.848200707840441464e+04,7.062718933561044105e+04,6.889065680874191457e+04,6.544209055106294545e+04,5.023105072261262831e+04,9.561484336853027344e+00,3.059675097465515137e-01,-1.912296712398529053e-01,3.200000000000000000e+01
6.880351041998596338e+04,6.160471057477631257e+04,4.716310006484336918e+04,5.982960648003133247e+04,6.833211152392454096e+04,6.663589253808624926e+04,7.318650449957771343e+04,4.892238077124454867e+04,9.561484336853027344e+00,3.059675097465515137e-01,-1.912296712398529053e-01,3.300000000000000000e+01
6.848627622219287150e+04,6.133726685586500389e+04,4.701528750363893778e+04,5.909674392705408536e+04,6.797672832652402576e+04,6.631193064753939689e+04,7.150378036066802451e+04,4.872717580618395004e+04,9.561484336853027344e+00,3.059675097465515137e-01,-1.912296712398529053e-01,3.400000000000000000e+01
6.842851835961379402e+04,6.128872103196755779e+04,4.699535388733229047e+04,5.812441331125896977e+04,6.787185558578325436e+04,6.621362123488992802e+04,6.756599893928192614e+04,4.858388410406126059e+04,9.561484336853027344e+00,3.059675097465515137e-01,-1.912296712398529053e-01,3.500000000000000000e+01
6.753192898506908386e+04,6.047561268981851026e+04,4.641990232708853000e+04,5.794961267451753520e+04,6.700344933611899614e+04,6.534809479177566391e+04,6.674488370941787434e+04,4.797132826406468666e+04,9.561484336853027344e+00,3.059675097465515137e-01,-1.912296712398529053e-01,3.600000000000000000e+01
6.662500999596554902e+04,5.966737514546994498e+04,4.585992517735502770e+04,5.774489932393406343e+04,6.611043836238807125e+04,6.448300654321158800e+04,6.674678810544349835e+04,4.743497800720077066e+04,9.561484336853027344e+00,3.059675097465515137e-01,-1.912296712398529053e-01,3.700000000000000000e+01
6.627267113071116910e+04,5.937737966150373541e+04,4.568823219264263025e+04,5.699666443246811104e+04,6.571515957493323367e+04,6.413649822246978874e+04,6.519743316670821514e+04,4.726464543374165805e+04,9.561484336853027344e+00,3.059675097465515137e-01,-1.912296712398529053e-01,3.800000000000000000e+01
6.586050920173994382e+04,5.902985241600679001e+04,4.547704102331426111e+04,5.634324057461844495e+04,6.527776654478556884e+04,6.373659855648394296e+04,6.362415132656117203e+04,4.701951028520072578e+04,9.561484336853027344e+00,3.059675097465515137e-01,-1.912296712398529053e-01,3.900000000000000000e+01
6.505400772004706960e+04,5.830608617524979491e+04,4.497592093420893070e+04,5.609431996750542021e+04,6.449540854688297259e+04,6.296390886386953207e+04,6.296843404913055565e+04,4.646843461415667116e+04,9.561484336853027344e+00,3.059675097465515137e-01,-1.912296712398529053e-01,4.000000000000000000e+01
6.430658853999722487e+04,5.762756928840532782e+04,4.448843063385758433e+04,5.576001467094803957e+04,6.376412225469346595e+04,6.223503209595243243e+04,6.200163394015016092e+04,4.593444520383347117e+04,9.561484336853027344e+00,3.059675097465515137e-01,-1.912296712398529053e-01,4.100000000000000000e+01
6.381559487028686272e+04,5.719760257571800321e+04,4.418830005271449045e+04,5.513683543691450177e+04,6.325408517954133276e+04,6.174834154678156483e+04,6.060185912758824270e+04,4.562071533057190391e+04,9.561484336853027344e+00,3.059675097465515137e-01,-1.912296712398529053e-01,4.200000000000000000e+01
6.328379891941525420e+04,5.675006454071821645e+04,4.389961533164810680e+04,5.455664246187005483e+04,6.270395105927778786e+04,6.123949198279301345e+04,5.991815319943444047e+04,4.534693815865430224e+04,9.561484336853027344e+00,3.059675097465515137e-01,-1.912296712398529053e-01,4.300000000000000000e+01
6.262035722839368827e+04,5.617793639210688707e+04,4.352349733517748246e+04,5.414243896883496927e+04,6.204399967372739047e+04,6.060941156248892366e+04,5.962186513958032447e+04,4.495624273686060769e+04,9.561484336853027344e+00,3.059675097465515137e-01,-1.912296712398529053e-01,4.400000000000000000e+01
6.198530379216537403e+04,5.560895255986158008e+04,4.312466545085535472e+04,5.371782759733348212e+04,6.141993855437822640e+04,5.998906576667735499e+04,5.835082340426725568e+04,4.448952741937397514e+04,9.561484336853027344e+00,3.059675097465515137e-01,-1.912296712398529053e-01,4.500000000000000000e+01
6.137726925749348447e+04,5.505709408139395964e+04,4.272084621766572673e+04,5.324023547550284275e+04,6.081802115387688536e+04,5.938537204568466404e+04,5.639430054150099022e+04,4.402500664318181225e+04,9.561484336853027344e+00,3.059675097465515137e-01,-1.912296712398529053e-01,4.600000000000000000e+01
6.073670113158739696e+04,5.449241735341381718e+04,4.232061429157509701e+04,5.276174807666120614e+04,6.017325837731875799e+04,5.876163849103943357e+04,5.544514414650866820e+04,4.362323553228822129e+04,9.561484336853027344e+00,3.059675097465515137e-01,-1.912296712398529053e-01,4.700000000000000000e+01
6.014344699553221290e+04,5.398463337315682293e+04,4.198406609686928277e+04,5.224430264723726577e+04,5.956260920063842786e+04,5.819201432549409219e+04,5.567187845551357896e+04,4.330578104866646754e+04,9.561484336853027344e+00,3.059675097465515137e-01,-1.912296712398529053e-01,4.800000000000000000e+01
5.960765185572401242e+04,5.351939189916213945e+04,4.167841919982388936e+04,5.170767992538259568e+04,5.901062579327216372e+04,5.767064445273886668e+04,5.501138081581180450e+04,4.297324022077947302e+04,9.561484336853027344e+00,3.059675097465515137e-01,-1.912296712398529053e-01,4.900000000000000000e+01
5.899778004872285965e+04,5.296825245163454383e+04,4.128666440094590507e+04,5.125852504263332230e+04,5.840376308909244835e+04,5.706775591590617114e+04,5.249914712200364738e+04,4.251152137551055785e+04,9.561484336853027344e+00,3.059675097465515137e-01,-1.912296712398529053e-01,5.000000000000000000e+01
5.830487085190079961e+04,5.234055747251237335e+04,4.082060396451081760e+04,5.086388033618128975e+04,5.772231538474956324e+04,5.638400726336517255e+04,5.084082075847803208e+04,4.199397253209119663e+04,9.561484336853027344e+00,3.059675097465515137e-01,-1.912296712398529053e-01,5.100000000000000000e+01
5.767268866428395268e+04,5.178617106452906592e+04,4.041708569901843293e+04,5.037545578373724857e+04,5.708660165033218072e+04,5.576800601750701026e+04,5.316207591570491786e+04,4.159141022843375686e+04,9.561484336853027344e+00,3.059675097465515137e-01,-1.912296712398529053e-01,5.200000000000000000e+01
5.713684987305846153e+04,5.133286854940447665e+04,4.011213391082709859e+04,4.979406096372878528e+04,5.653682770174778852e+04,5.525644686335010920e+04,5.793077673197664262e+04,4.130461269083473599e+04,9.446745872497558594e+00,2.294756323099136353e-01,-2.294756323099136353e-01,5.300000000000000000e+01
5.657997121876190067e+04,5.085065690526573599e+04,3.979375544704357162e+04,4.926725074210105959e+04,5.597873387939653185e+04,5.472504982711209595e+04,6.045346163525478914e+04,4.096447121475741733e+04,9.446745872497558594e+00,2.294756323099136353e-01,-2.294756323099136353e-01,5.400000000000000000e+01
5.593657495760961319e+04,5.026725661316291371e+04,3.938141413181454118e+04,4.884778796387655893e+04,5.534819119775752188e+04,5.409583751462805958e+04,5.925658716934158292e+04,4.048606102771421865e+04,9.446745872497558594e+00,2.294756323099136353e-01,-2.294756323099136353e-01,5.500000000000000000e+01
5.527249989860339701e+04,4.965848729261209519e+04,3.892989965523652791e+04,4.843149797902991122e+04,5.469007975938646996e+04,5.343567697377179866e+04,5.727003524847118388e+04,3.997977654536494811e+04,9.446745872497558594e+00,2.294756323099136353e-01,-2.294756323099136353e-01,5.600000000000000000e+01
5.466882480897584173e+04,4.912419867439679365e+04,3.853878684639502171e+04,4.792346016616062843e+04,5.407586805551125144e+04,5.284342595761361736e+04,5.669392526207628543e+04,3.958682577722894348e+04,9.446745872497558594e+00,2.294756323099136353e-01,-2.294756323099136353e-01,5.700000000000000000e+01
5.412022018360704533e+04,4.866065524111711420e+04,3.822076338376843341e+04,4.735969057854903076e+04,5.351344095353447483e+04,5.232267792354420817e+04,5.658658651487022144e+04,3.929034364115690551e+04,9.446745872497558594e+00,2.294756323099136353e-01,-2.294756323099136353e-01,5.800000000000000000e+01
5.355577559325608308e+04,4.817634744771262194e+04,3.789137215775651566e+04,4.684574505845251406e+04,5.294733226472046226e+04,5.178905491734538373e+04,5.577264050257195777e+04,3.894618507051205961e+04,9.446745872497558594e+00,2.294756323099136353e-01,-2.294756323099136353e-01,5.900000000000000000e+01
5.292738671597751818e+04,4.761003246688669606e+04,3.748077760783256963e+04,4.641855644951111026e+04,5.232914348677817179e+04,5.118011464599515602e+04,5.467808462676694762e+04,3.847836987526286248e+04,9.446745872497558594e+00,2.294756323099136353e-01,-2.294756323099136353e-01,6.000000000000000000e+01
5.226629623552943667e+04,4.700741423889401631e+04,3.702571838237129123e+04,4.600383525992450450e+04,5.167712545051052439e+04,5.053248317075265368e+04,5.385746640025753004e+04,3.797907753106114978e+04,9.446745872497558594e+00,2.294756323099136353e-01,-2.294756323099136353e-01,6.100000000000000000e+01
5.165592237151995505e+04,4.647084009389988933e+04,3.662844301721225202e+04,4.550521146788314945e+04,5.106316068334531155e+04,4.994282561444990279e+04,5.310007702854232775e+04,3.758796976444373286e+04,9.446745872497558594e+00,2.294756323099136353e-01,-2.294756323099136353e-01,6.200000000000000000e+01
5.111231803906945424e+04,4.601182501542432146e+04,3.631189062149990787e+04,4.494303628264638974e+04,5.050825487915753911e+04,4.943000884742743074e+04,5.233259079912718880e+04,3.729576575539563055e+04,9.446745872497558594e+00,2.294756323099136353e-01,-2.294756323099136353e-01,6.300000000000000000e+01
5.056011238155246247e+04,4.553421845212980406e+04,3.598782727273773344e+04,4.442545014554055524e+04,4.995455228615896340e+04,4.890948683145228279e+04,5.170780551962932077e+04,3.695711703158934688e+04,9.446745872497558594e+00,2.294756323099136353e-01,-2.294756323099136353e-01,6.400000000000000000e+01
4.993693329894887574e+04,4.496850542368165770e+04,3.557951362984238222e+04,4.399771290335062076e+04,4.934672593634197256e+04,4.830908731208014069e+04,5.102579491105770285e+04,3.649156207769619505e+04,9.446745872497558594e+00,2.294756323099136353e-01,-2.294756323099136353e-01,6.500000000000000000e+01
4.928294784962020640e+04,4.436967530222419737e+04,3.512810974204459490e+04,4.357985605470649898e+04,4.870821230457824277e+04,4.766748994579935243e+04,5.003454494537287974e+04,3.599392241331528930e+04,9.446745872497558594e+00,2.294756323099136353e-01,-2.294756323099136353e-01,6.600000000000000000e+01
4.868600982411042787e+04,4.384140134973904060e+04,3.473477788496871653e+04,4.307885113901913428e+04,4.810735172291989875e+04,4.708066205816559523e+04,4.899219554538341617e+04,3.560209688560714130e+04,9.446745872497558594e+00,2.294756323099136353e-01,-2.294756323099136353e-01,6.700000000000000000e+01
4.815776795162649796e+04,4.339289864627976203e+04,3.442018930365706183e+04,4.251812762678623403e+04,4.756259904178998841e+04,4.656972362255510961e+04,4.833304064490037126e+04,3.530654016642591887e+04,9.446745872497558594e+00,2.294756323099136353e-01,-2.294756323099136353e-01,6.800000000000000000e+01
4.761714837841458211e+04,4.292674743714298529e+04,3.409659151911098161e+04,4.200485081647281913e+04,4.701782123320603569e+04,4.605225349333820486e+04,4.795175504962155537e+04,3.496454383450496243e+04,9.446745872497558594e+00,2.294756323099136353e-01,-2.294756323099136353e-01,6.900000000000000000e+01
4.700397963845270715e+04,4.237278319042195653e+04,3.368978242003077321e+04,4.158171431401057635e+04,4.642020473760796449e+04,4.545767033615180117e+04,4.722767893202591949e+04,3.449870745373974933e+04,9.446745872497558594e+00,2.294756323099136353e-01,-2.294756323099136353e-01,7.000000000000000000e+01
4.636135515649849549e+04,4.178336471480016917e+04,3.324143681252540409e+04,4.116896347067426541e+04,4.579310905044641549e+04,4.482654155873987474e+04,4.596203063921945432e+04,3.400457796979048726e+04,9.446745872497558594e+00,2.294756323099136353e-01,-2.294756323099136353e-01,7.100000000000000000e+01
4.577424417958223785e+04,4.126104736454803788e+04,3.285125581337710173e+04,4.067524058231445815e+04,4.520409902930761746e+04,4.425439103696228995e+04,4.491848587987307110e+04,3.361843683658816008e+04,9.446745872497558594e+00,2.294756323099136353e-01,-2.294756323099136353e-01,7.200000000000000000e+01
4.525327447153646062e+04,4.081851870525205595e+04,3.253937921693437238e+04,4.012293840350012033e+04,4.467156902659250773e+04,4.375823711996681959e+04,4.466195428132982488e+04,3.332825154519954958e+04,9.446745872497558594e+00,2.294756323099136353e-01,-2.294756323099136353e-01,7.300000000000000000e+01
4.472196504671187722e+04,4.036170526903965219e+04,3.221829116280976450e+04,3.961658873021788895e+04,4.413823907428723760e+04,4.325270692357425287e+04,4.430166414738765889e+04,3.298990831994840846e+04,9.446745872497558594e+00,2.294756323099136353e-01,-2.294756323099136353e-01,7.400000000000000000e+01
4.412150278696286114e+04,3.981936771891568060e+04,3.181346830241153293e+04,3.919931647451291792e+04,4.354999785891801730e+04,4.266868182583131420e+04,4.289891254004494112e+04,3.252727517240441375e+04,9.446745872497558594e+00,2.294756323099136353e-01,-2.294756323099136353e-01,7.500000000000000000e+01
4.349085494504014059e+04,3.924131228467189794e+04,3.136701574162824909e+04,3.879432120001753356e+04,4.293207017952503520e+04,4.204834913309555122e+04,4.166691745472075854e+04,3.203816391437507991e+04,9.446745872497558594e+00,2.294756323099136353e-01,-2.294756323099136353e-01,7.600000000000000000e+01
4.291436806218753918e+04,3.872890004969512665e+04,3.098046849587588076e+04,3.831055456974563276e+04,4.235518768664346135e+04,4.148601532167274127e+04,4.254415402745045867e+04,3.165846060449059587e+04,9.446745872497558594e+00,2.294756323099136353e-01,-2.294756323099136353e-01,7.700000000000000000e+01
4.240651405082372366e+04,3.829417824838813976e+04,3.067493768759598606e+04,3.776743462528394593e+04,4.183752681309438776e+04,4.099887849095324054e+04,4.486319008398790902e+04,3.137393873277908278e+04,9.484992027282714844e+00,1.912296712398529053e-01,-3.442134261131286621e-01,7.800000000000000000e+01
4.189091268204960215e+04,3.784427654791039822e+04,3.036222261776800588e+04,3.726799651474195707e+04,4.131931072523616604e+04,4.050483340842575853e+04,4.602261631097192003e+04,3.104073230541000521e+04,9.484992027282714844e+00,1.912296712398529053e-01,-3.442134261131286621e-01,7.900000000000000000e+01
4.130553427146567265e+04,3.731217045574217627e+04,2.996709042749156652e+04,3.685693233029649127e+04,4.074531911449672771e+04,3.993532461485478416e+04,4.530033466173872876e+04,3.058426055768851802e+04,9.484992027282714844e+00,1.912296712398529053e-01,-3.442134261131286621e-01,8.000000000000000000e+01
4.068959289880713914e+04,3.674936717057780334e+04,2.953040186258742324e+04,3.645862738437248481e+04,4.013970120180780941e+04,3.932841186254988861e+04,4.433918468420102727e+04,3.010062937409852020e+04,9.484992027282714844e+00,1.912296712398529053e-01,-3.442134261131286621e-01,8.100000000000000000e+01
4.012909771318097773e+04,3.625220732293074980e+04,2.915061588362223847e+04,3.598145692501735175e+04,3.957110360185147147e+04,3.877629885757778538e+04,4.404216684731082205e+04,2.972356338514319941e+04,9.484992027282714844e+00,1.912296712398529053e-01,-3.442134261131286621e-01,8.200000000000000000e+01
3.963642933502655069e+04,3.582761841769052990e+04,2.884701821769095113e+04,3.544488690873450105e+04,3.905941376780643623e+04,3.829947091798757901e+04,4.363699995970998134e+04,2.944275257479954234e+04,9.484992027282714844e+00,1.912296712398529053e-01,-3.442134261131286621e-01,8.300000000000000000e+01
3.913305296561786963e+04,3.538426647001867241e+04,2.853419858875429054e+04,3.495315515355890966e+04,3.855162312864518753e+04,3.781924772786310496e+04,4.279210277528599545e+04,2.912082475425684243e+04,9.484992027282714844e+00,1.912296712398529053e-01,-3.442134261131286621e-01,8.400000000000000000e+01
3.855846820263505651e+04,3.485842690692342876e+04,2.814085555034844219e+04,3.455106573109679448e+04,3.799629507884155464e+04,3.726697949497315858e+04,4.218504582036218926e+04,2.868263361843151870e+04,9.484992027282714844e+00,1.912296712398529053e-01,-3.442134261131286621e-01,8.500000000000000000e+01
3.795256302193419106e+04,3.430097728655370156e+04,2.770793176594851684e+04,3.416192263215166167e+04,3.741368928675771167e+04,3.667947366397931182e+04,4.195876868274073058e+04,2.821732937921063422e+04,9.484992027282714844e+00,1.912296712398529053e-01,-3.442134261131286621e-01,8.600000000000000000e+01
3.739966337704667239e+04,3.380843937125182129e+04,2.733231212358246557e+04,3.369403473475931241e+04,3.686725608010921133e+04,3.614759781376160390e+04,4.149849587901230552e+04,2.785450521520075927e+04,9.484992027282714844e+00,1.912296712398529053e-01,-3.442134261131286621e-01,8.700000000000000000e+01
3.691430818077245203e+04,3.339258166927145066e+04,2.703435690281812276e+04,3.316787239076942205e+04,3.637562719353895955e+04,3.568905593921800028e+04,4.069682255920951138e+04,2.758454155194667692e+04,9.484992027282714844e+00,1.912296712398529053e-01,-3.442134261131286621e-01,8.800000000000000000e+01
3.642378854221234360e+04,3.296492685374331631e+04,2.673018642839734821e+04,3.268761228920270514e+04,3.588508757976583001e+04,3.522297159402434772e+04,4.005308885864821059e+04,2.727033163985561259e+04,9.484992027282714844e+00,1.912296712398529053e-01,-3.442134261131286621e-01,8.900000000000000000e+01
3.586861980637149099e+04,3.245783784038417434e+04,2.634679452798295461e+04,3.229671346702148367e+04,3.534250274095922941e+04,3.468225551974919654e+04,3.969739785593197303e+04,2.683624695236474508e+04,9.484992027282714844e+00,1.912296712398529053e-01,-3.442134261131286621e-01,9.000000000000000000e+01
3.528394252657437028e+04,3.191765098779224354e+04,2.592273967896455724e+04,3.191792905790028817e+04,3.476997840401512804e+04,3.410686576540987153e+04,3.930351179529100773e+04,2.637368524915333182e+04,9.484992027282714844e+00,1.912296712398529053e-01,-3.442134261131286621e-01,9.100000000000000000e+01
3.475109429106514290e+04,3.144096975097402174e+04,2.555535497240830955e+04,3.146068165947035595e+04,3.423591209823657846e+04,3.358818152634208673e+04,3.872411525110373623e+04,2.601524276005454885e+04,9.484992027282714844e+00,1.912296712398529053e-01,-3.442134261131286621e-01,9.200000000000000000e+01
3.428466699291499390e+04,3.104070616248773877e+04,2.526620738713891478e+04,3.094665437971118445e+04,3.376005180004955037e+04,3.314243959218460077e+04,3.808921615693587955e+04,2.575102826265097610e+04,9.484992027282714844e+00,1.912296712398529053e-01,-3.442134261131286621e-01,9.300000000000000000e+01
3.381080350987709244e+04,3.062790848253752483e+04,2.497101562635148002e+04,3.047981456081998476e+04,3.328534150978714024e+04,3.268857244541707041e+04,3.751754256544981763e+04,2.544232642062209925e+04,9.484992027282714844e+00,1.912296712398529053e-01,-3.442134261131286621e-01,9.400000000000000000e+01
3.326927724176957418e+04,3.013572290819092086e+04,2.459682365110296087e+04,3.010250493955174170e+04,3.275751725982826611e+04,3.216051908489577909e+04,3.705217636810083059e+04,2.501410168191978300e+04,9.484992027282714844e+00,1.912296712398529053e-01,-3.442134261131286621e-01,9.500000000000000000e+01
3.269813328561446178e+04,2.961224456029435169e+04,2.418346664660172974e+04,2.973693003061334457e+04,3.220080136228595438e+04,3.159853259786113995e+04,3.665581192889101658e+04,2.455894307054960154e+04,9.484992027282714844e+00,1.912296712398529053e-01,-3.442134261131286621e-01,9.600000000000000000e+01
3.218131178080977406e+04,2.915255809275212960e+04,2.382774460608304798e+04,2.929270473974625565e+04,3.168360236443120812e+04,3.109397127374217598e+04,3.617802483757758455e+04,2.420904912446863455e+04,9.484992027282714844e+00,1.912296712398529053e-01,-3.442134261131286621e-01,9.700000000000000000e+01
3.173215584089412005e+04,2.876610847159363766e+04,2.354887647930774619e+04,2.879122001806613844e+04,3.122349092073704014e+04,3.066401417589817356e+04,3.554739404782888596e+04,2.395436644169553620e+04,9.484992027282714844e+00,1.912296712398529053e-01,-3.442134261131286621e-01,9.800000000000000000e+01
3.127556851140097569e+04,2.836438947495406319e+04,2.326251049642758881e+04,2.833528315752337221e+04,3.076394763733099535e+04,3.022822736054321285e+04,3.493053301791290141e+04,2.365712142312715878e+04,9.484992027282714844e+00,1.912296712398529053e-01,-3.442134261131286621e-01,9.900000000000000000e+01
3.075219797683203069e+04,2.788456530604248837e+04,2.289795233272551195e+04,2.796685243059055574e+04,3.025329561658308739e+04,2.971905632191547193e+04,3.449709420760821376e+04,2.324161173166822846e+04,9.484992027282714844e+00,1.912296712398529053e-01,-3.442134261131286621e-01,1.000000000000000000e+02
3.019907399117271780e+04,2.737639864837050118e+04,2.249513543488019786e+04,2.760999252867169707e+04,2.971549859263761027e+04,2.917456258088753020e+04,3.414858504366762645e+04,2.279783869450190105e+04,9.484992027282714844e+00,1.912296712398529053e-01,-3.442134261131286621e-01,1.010000000000000000e+02
2.969742364913394340e+04,2.693319034081979771e+04,2.214859197304795089e+04,2.717706896665958993e+04,2.921657510776689742e+04,2.868609655559584644e+04,3.366447909325596993e+04,2.245721696558232725e+04,9.484992027282714844e+00,1.912296712398529053e-01,-3.442134261131286621e-01,1.020000000000000000e+02
2.926177055366749482e+04,2.656353179252314658e+04,2.187751889918545203e+04,2.669015327205678113e+04,2.877427594004956700e+04,2.827280076720663055e+04,3.302948809016453743e+04,2.221188708728896745e+04,9.484992027282714844e+00,1.912296712398529053e-01,-3.442134261131286621e-01,1.030000000000000000e+02
2.882132849163229912e+04,2.618009149405738208e+04,2.160016966673625575e+04,2.625010834161914681e+04,2.833443612802918506e+04,2.785554224967202754e+04,3.244470445442543860e+04,2.192600629422357451e+04,9.484992027282714844e+00,1.912296712398529053e-01,-3.442134261131286621e-01,1.040000000000000000e+02
2.831746125700343691e+04,2.571971389256493421e+04,2.124646530911612717e+04,2.589704762322756869e+04,2.784556744194836938e+04,2.736672343820155947e+04,3.203699504625593909e+04,2.152371931315445909e+04,9.484992027282714844e+00,2.294756323099136353e-01,-1.529837548732757568e-01,1.050000000000000000e+02
2.778393689479045133e+04,2.522951021655452496e+04,2.085406824812405466e+04,2.555522070629950758e+04,2.732930994002785155e+04,2.684416857682737827e+04,3.169353069807084466e+04,2.109414396340504027e+04,9.484992027282714844e+00,2.294756323099136353e-01,-1.529837548732757568e-01,1.060000000000000000e+02
2.730019515741611758e+04,2.480138331437186571e+04,2.051627887161803301e+04,2.513761685131640479e+04,2.685023710081992976e+04,2.637839371465316071e+04,3.122541120981493441e+04,2.076780872397084022e+04,9.484992027282714844e+00,2.294756323099136353e-01,-1.529837548732757568e-01,1.070000000000000000e+02
2.688153377282703150e+04,2.444534825649415870e+04,2.025322961643910094e+04,2.466554674239866290e+04,2.642653650632685458e+04,2.598628965416279243e+04,3.061580412189304479e+04,2.053581673758027682e+04,9.484992027282714844e+00,2.294756323099136353e-01,-1.529837548732757568e-01,1.080000000000000000e+02
2.645803470497917442e+04,2.407529106904780201e+04,1.998378584552993561e+04,2.423908599235125803e+04,2.600450866833329565e+04,2.558689284420428885e+04,3.004682874244191771e+04,2.026223628339032803e+04,9.484992027282714844e+00,2.294756323099136353e-01,-1.529837548732757568e-01,1.090000000000000000e+02
2.597204837251499339e+04,2.362728850440918904e+04,1.963800911317759892e+04,2.389918297861450628e+04,2.553249506436185038e+04,2.511309721904918115e+04,2.964736757941685210e+04,1.987214267834661587e+04,9.484992027282714844e+00,2.294756323099136353e-01,-1.529837548732757568e-01,1.100000000000000000e+02
2.545842082155297248e+04,2.314858139430671508e+04,1.925484624308622733e+04,2.357112325107010111e+04,2.503256874953381339e+04,2.460422336791680573e+04,2.931616501054279797e+04,1.945442748126572042e+04,9.484992027282714844e+00,2.294756323099136353e-01,-1.529837548732757568e-01,1.110000000000000000e+02
2.499572382033225222e+04,2.273399662248791719e+04,1.892860003836447504e+04,2.316751684753034351e+04,2.457070970593555467e+04,2.415180938395899648e+04,2.886292019769304534e+04,1.913823622186074499e+04,9.484992027282714844e+00,2.294756323099136353e-01,-1.529837548732757568e-01,1.120000000000000000e+02
2.459762857773247015e+04,2.239567566783573420e+04,1.867822678652557443e+04,2.270910251082303148e+04,2.416610397840115911e+04,2.377416215181277948e+04,2.827086359115473533e+04,1.891526177655855281e+04,9.484992027282714844e+00,2.294756323099136353e-01,-1.529837548732757568e-01,1.130000000000000000e+02
2.419515807309837692e+04,2.204554633528040722e+04,1.842145454883785351e+04,2.229629205152205031e+04,2.376448070954894501e+04,2.339185283956388230e+04,2.771935461827409017e+04,1.865215382556711120e+04,9.484992027282714844e+00,2.294756323099136353e-01,-1.529837548732757568e-01,1.140000000000000000e+02
2.373224708889161411e+04,2.161676799145822588e+04,1.808933036629587150e+04,2.197013063690417766e+04,2.331267171767260515e+04,2.293726056428751326e+04,2.733620291916466886e+04,1.827441318273909565e+04,9.484992027282714844e+00,2.294756323099136353e-01,-1.529837548732757568e-01,1.150000000000000000e+02
2.324191322065160057e+04,2.115669254437213749e+04,1.772127035924608208e+04,2.165551246054552030e+04,2.283160696602178359e+04,2.244770356509109479e+04,2.702142191256169826e+04,1.786832374834538496e+04,9.484992027282714844e+00,2.294756323099136353e-01,-1.529837548732757568e-01,1.160000000000000000e+02
2.279989469748161355e+04,2.076084570854080084e+04,1.740964147240557941e+04,2.126555393371542959e+04,2.238690705152660666e+04,2.201397044494991860e+04,2.658550821033664033e+04,1.756163606313148193e+04,9.484992027282714844e+00,2.294756323099136353e-01,-1.529837548732757568e-01,1.170000000000000000e+02
2.242028730460452061e+04,2.043907565080152199e+04,1.717218922963607110e+04,2.082171949954570300e+04,2.199816159560864617e+04,2.165459363798420236e+04,2.601142741743152510e+04,1.734779288195852860e+04,9.484992027282714844e+00,2.294756323099136353e-01,-1.529837548732757568e-01,1.180000000000000000e+02
2.203538633421686973e+04,2.010146040085614004e+04,1.692769887400910011e+04,2.042352937740956258e+04,2.161253351096461120e+04,2.128975974597453023e+04,2.547841123156682443e+04,1.709540488853949500e+04,9.484992027282714844e+00,2.294756323099136353e-01,-1.529837548732757568e-01,1.190000000000000000e+02
2.158823077339437441e+04,1.968457897223871259e+04,1.660700108043927321e+04,2.011102888730086124e+04,2.117865828344784677e+04,2.085240636504803842e+04,2.511372335049464891e+04,1.673025747787611908e+04,9.484992027282714844e+00,2.294756323099136353e-01,-1.529837548732757568e-01,1.200000000000000000e+02
2.111243422557136728e+04,1.924079364539875314e+04,1.624728234450234049e+04,1.981052367517277526e+04,2.071778933507409238e+04,2.038207471535999139e+04,2.481609907795255640e+04,1.633835584809364627e+04,9.484992027282714844e+00,2.294756323099136353e-01,-1.529837548732757568e-01,1.210000000000000000e+02
2.068779096819448750e+04,1.886528629271144382e+04,1.594153019771595427e+04,1.943697797199284105e+04,2.029403452663576536e+04,1.996974128396142623e+04,2.439617737498643692e+04,1.604681759850092203e+04,9.484992027282714844e+00,2.294756323099136353e-01,-1.529837548732757568e-01,1.220000000000000000e+02
2.032974655121487740e+04,1.856400300298651564e+04,1.571190631028383541e+04,1.901085215662021801e+04,1.992577595477838622e+04,1.963115496714435722e+04,2.383893281113300327e+04,1.584760959462413666e+04,9.484992027282714844e+00,2.294756323099136353e-01,-1.529837548732757568e-01,1.230000000000000000e+02
1.996624175726243629e+04,1.824645098548358146e+04,1.547971113763226822e+04,1.862941937039614277e+04,1.956077284082253027e+04,1.928603714630367904e+04,2.332418314165826450e+04,1.560884207587820129e+04,9.484992027282714844e+00,2.294756323099136353e-01,-1.529837548732757568e-01,1.240000000000000000e+02
1.953756785520136327e+04,1.785079647472309080e+04,1.517412581571132068e+04,1.833277238319717435e+04,1.914889642963679944e+04,1.887048922026082073e+04,2.297744366139317572e+04,1.525800113657705879e+04,9.484992027282714844e+00,2.294756323099136353e-01,-1.529837548732757568e-01,1.250000000000000000e+02
1.908060451232201740e+04,1.742671251547538850e+04,1.483057687222796994e+04,1.804876625008008341e+04,1.871146422138666821e+04,1.842412889838856790e+04,2.269721416478049650e+04,1.488186298872394764e+04,9.484992027282714844e+00,2.294756323099136353e-01,-1.529837548732757568e-01,1.260000000000000000e+02
1.867742165066989401e+04,1.706512000444616933e+04,1.454153342784288725e+04,1.769252880141564674e+04,1.831101578218446230e+04,1.803285284926800523e+04,2.229648393214238604e+04,1.460473012957663923e+04,9.484992027282714844e+00,2.294756323099136353e-01,-1.529837548732757568e-01,1.270000000000000000e+02
1.833993928608499118e+04,1.677515834555376205e+04,1.432720965407512631e+04,1.728362095481194410e+04,1.796372534738963441e+04,1.771004815024860000e+04,2.176056553931225062e+04,1.441578371333336690e+04,9.484992027282714844e+00,2.294756323099136353e-01,-1.529837548732757568e-01,1.280000000000000000e+02
1.799372062315148651e+04,1.647485773874718143e+04,1.410681563074369296e+04,1.691938417369540548e+04,1.761649161821798407e+04,1.737984036107455904e+04,2.126597411392219874e+04,1.418503914001496378e+04,9.484992027282714844e+00,2.294756323099136353e-01,-1.529837548732757568e-01,1.290000000000000000e+02
1.758305586294825844e+04,1.610422358254724531e+04,1.381113133454703348e+04,1.664060296679284511e+04,1.722070010187450680e+04,1.698249345232717678e+04,2.093637093268061290e+04,1.384417352218430096e+04,9.484992027282714844e+00,2.294756323099136353e-01,-1.529837548732757568e-01,1.300000000000000000e+02
1.714819659211439284e+04,1.570596975097103496e+04,1.347875637227642801e+04,1.637481547329717796e+04,1.679984238697569890e+04,1.655631157644476843e+04,2.067265092719406312e+04,1.348096471901996483e+04,9.484992027282714844e+00,2.294756323099136353e-01,-1.529837548732757568e-01,1.310000000000000000e+02
1.676779482646640827e+04,1.536540398855408239e+04,1.320208061383965105e+04,1.603610039435708495e+04,1.641760822177621230e+04,1.618519381872491067e+04,2.029032298049215024e+04,1.321835531929507852e+04,9.484992027282714844e+00,2.294756323099136353e-01,-1.529837548732757568e-01,1.320000000000000000e+02
1.644991283637185552e+04,1.509170056771581585e+04,1.299965243559836563e+04,1.564380545553715456e+04,1.609134340833794704e+04,1.588406521879446518e+04,1.977431085084840743e+04,1.304619462706343438e+04,9.484992027282714844e+00,2.294756323099136353e-01,-1.529837548732757568e-01,1.330000000000000000e+02
1.612284025803162513e+04,1.480377619275581128e+04,1.279181465717439278e+04,1.529596935863400176e+04,1.576913536259463581e+04,1.557816406743793050e+04,1.930040031948759861e+04,1.283567692671444456e+04,9.484992027282714844e+00,2.294756323099136353e-01,-1.529837548732757568e-01,1.340000000000000000e+02
1.573536343208161998e+04,1.444305967843094550e+04,1.251137022085727949e+04,1.503345582737171208e+04,1.540033381051845572e+04,1.520501169420671431e+04,1.899284272729357326e+04,1.251549495623111761e+04,9.484992027282714844e+00,2.294756323099136353e-01,-1.529837548732757568e-01,1.350000000000000000e+02
1.532681796153371033e+04,1.405764542552348939e+04,1.219560109349767299e+04,1.478291272594373004e+04,1.500333125021752130e+04,1.480006273037876599e+04,1.875225780058743112e+04,1.216879025358985200e+04,9.484992027282714844e+00,2.677215635776519775e-01,-2.294756323099136353e-01,1.360000000000000000e+02
1.497191939062916754e+04,1.373744297880295926e+04,1.193386352036785684e+04,1.445837221119419883e+04,1.463969696525330437e+04,1.444800291594854934e+04,1.839238397487592738e+04,1.191884141768323934e+04,9.484992027282714844e+00,2.677215635776519775e-01,-2.294756323099136353e-01,1.370000000000000000e+02
1.467731614947975140e+04,1.348863048959476509e+04,1.174389358146592349e+04,1.408079369073781527e+04,1.433004783801998201e+04,1.416597130521647341e+04,1.789705716172916073e+04,1.175964347211538006e+04,9.484992027282714844e+00,2.677215635776519775e-01,-2.294756323099136353e-01,1.380000000000000000e+02
1.437164432755344205e+04,1.322362662745104899e+04,1.154701736240746686e+04,1.374925032228952114e+04,1.402576708055934796e+04,1.387956712891601819e+04,1.744209513531641278e+04,1.156351742321719394e+04,9.484992027282714844e+00,2.677215635776519775e-01,-2.294756323099136353e-01,1.390000000000000000e+02
1.400320455449807741e+04,1.288145023020345616e+04,1.127686863180962973e+04,1.350348888541690394e+04,1.367631582779223754e+04,1.352538126219821788e+04,1.715186778837635575e+04,1.125704641696642648e+04,9.484992027282714844e+00,2.677215635776519775e-01,-2.294756323099136353e-01,1.400000000000000000e+02
1.361161055403290447e+04,1.251085782341336017e+04,1.097192880295692339e+04,1.326913532028357440e+04,1.330029070985407816e+04,1.313851875887352253e+04,1.692779337872102769e+04,1.092320637861887008e+04,9.484992027282714844e+00,2.677215635776519775e-01,-2.294756323099136353e-01,1.410000000000000000e+02
1.327418124355539294e+04,1.220276378053385633e+04,1.072308304317879083e+04,1.296120970551721985e+04,1.296029454801919201e+04,1.280411158893703396e+04,1.658527950319468437e+04,1.068659375385108433e+04,9.484992027282714844e+00,2.677215635776519775e-01,-2.294756323099136353e-01,1.420000000000000000e+02
1.299983570483787298e+04,1.196697278052989714e+04,1.054786638758002300e+04,1.260124786960804340e+04,1.267501724682928580e+04,1.254003716982922560e+04,1.610859320128581385e+04,1.053995759246638409e+04,9.484992027282714844e+00,2.677215635776519775e-01,-2.294756323099136353e-01,1.430000000000000000e+02
1.271642154652267891e+04,1.172073565766246975e+04,1.036567395531142392e+04,1.228647220413343530e+04,1.239197813336715990e+04,1.227259268498210804e+04,1.567211657851362543e+04,1.035393857588254832e+04,9.484992027282714844e+00,2.677215635776519775e-01,-2.294756323099136353e-01,1.440000000000000000e+02
1.236956044884011135e+04,1.140263710645056017e+04,1.010885388441953910e+04,1.205542882954052402e+04,1.206033947873886791e+04,1.193846743178380711e+04,1.539937383351969947e+04,1.005728069919311747e+04,9.484992027282714844e+00,2.677215635776519775e-01,-2.294756323099136353e-01,1.450000000000000000e+02
1.199730355662011425e+04,1.105623131085020941e+04,9.815790610866670249e+03,1.183602478339871595e+04,1.170164074469014486e+04,1.157209601151144670e+04,1.519278163465167381e+04,9.735835447909630602e+03,9.484992027282714844e+00,2.677215635776519775e-01,-2.294756323099136353e-01,1.460000000000000000e+02
1.167787790668956040e+04,1.076914150176435214e+04,9.577703968507979880e+03,1.154590646480214491e+04,1.137967452680202587e+04,1.125790512786315230e+04,1.486902150374922348e+04,9.512840644238731329e+03,9.484992027282714844e+00,2.677215635776519775e-01,-2.294756323099136353e-01,1.470000000000000000e+02
1.142234335561334956e+04,1.055065017681007157e+04,9.413691681183623587e+03,1.120575574285320545e+04,1.111254467446183480e+04,1.101345953131809256e+04,1.441270668563424806e+04,9.378325292940653526e+03,9.484992027282714844e+00,2.677215635776519775e-01,-2.294756323099136353e-01,1.480000000000000000e+02
1.115966338458724204e+04,1.031789476000529248e+04,9.245651356046962974e+03,1.091049725273679542e+04,1.084863132208306524e+04,1.076485694007837810e+04,1.399776867302654500e+04,9.203794637407150731e+03,9.484992027282714844e+00,2.677215635776519775e-01,-2.294756323099136353e-01,1.490000000000000000e+02
1.083493833868510774e+04,1.001217644310951073e+04,9.006095424785327850e+03,1.069863473839335347e+04,1.053829473997460445e+04,1.044890542466528495e+04,1.374667752110733090e+04,8.920390929500756101e+03,9.484992027282714844e+00,2.677215635776519775e-01,-2.294756323099136353e-01,1.500000000000000000e+02
1.048528987199366748e+04,9.682423729969865235e+03,8.730319257997109162e+03,1.049917565115412253e+04,1.020213503309334556e+04,1.010078034068895795e+04,1.356102737065395195e+04,8.613838363412329272e+03,9.484992027282714844e+00,2.677215635776519775e-01,-2.294756323099136353e-01,1.510000000000000000e+02
1.018818150437744589e+04,9.417146029874078522e+03,8.507160800316885798e+03,1.022903866866242970e+04,9.902424787859012213e+03,9.805224160630652477e+03,1.325794093844241979e+04,8.405896864051828743e+03,9.484992027282714844e+00,2.677215635776519775e-01,-2.294756323099136353e-01,1.520000000000000000e+02
9.953801365327763051e+03,9.220942447346687914e+03,8.356455218083021464e+03,9.907075264501700076e+03,9.656971705647643830e+03,9.578855764191463095e+03,1.282264944758186357e+04,8.286317877406827392e+03,9.484992027282714844e+00,2.677215635776519775e-01,-2.294756323099136353e-01,1.530000000000000000e+02
9.710889732973446371e+03,9.008689819665371033e+03,8.201607519599450825e+03,9.627893377253298240e+03,9.413995114740188001e+03,9.347387881170183391e+03,1.242824493267865182e+04,8.126907524128637306e+03,9.484992027282714844e+00,2.677215635776519775e-01,-2.294756323099136353e-01,1.540000000000000000e+02
9.405501229150875588e+03,8.723263033441358857e+03,7.975713202961826937e+03,9.431323080322359601e+03,9.123786245115559723e+03,9.049782558865554165e+03,1.219627974028289827e+04,7.858847931894184512e+03,9.484992027282714844e+00,2.677215635776519775e-01,-2.294756323099136353e-01,1.550000000000000000e+02
9.075287245130330120e+03,8.412497777726224740e+03,7.714711918761835477e+03,9.247586156593086343e+03,8.808198823356771754e+03,8.723728721366518585e+03,1.202943402224735291e+04,7.567986735756071539e+03,9.484992027282714844e+00,2.677215635776519775e-01,-2.294756323099136353e-01,1.560000000000000000e+02
8.796784813933838450e+03,8.162208041452450743e+03,7.507417219373104672e+03,8.993749055862619571e+03,8.530528792283617804e+03,8.453100849063954229e+03,1.174647448209748109e+04,7.375798014958942076e+03,9.561484336853027344e+00,1.529837548732757568e-01,-2.294756323099136353e-01,1.570000000000000000e+02
8.579549640742978227e+03,7.979006036081189450e+03,7.371294388973879904e+03,8.687976250171275751e+03,8.307388796359999105e+03,8.251370912685273652e+03,1.133234532789817604e+04,7.271420271617092112e+03,9.561484336853027344e+00,1.529837548732757568e-01,-2.294756323099136353e-01,1.580000000000000000e+02
8.353322739340223052e+03,7.781274130338284522e+03,7.227532276435292260e+03,8.424056194899345428e+03,8.085476870674457132e+03,8.043148973780354027e+03,1.095871783064683950e+04,7.127349263828334188e+03,9.561484336853027344e+00,1.529837548732757568e-01,-2.294756323099136353e-01,1.590000000000000000e+02
8.065595982440973785e+03,7.510510502439049560e+03,7.010762796950420125e+03,8.241539526512620796e+03,7.815083911724281279e+03,7.768164341335425888e+03,1.074666054048357910e+04,6.875797116238504714e+03,9.561484336853027344e+00,1.529837548732757568e-01,-2.294756323099136353e-01,1.600000000000000000e+02
7.754725188571306717e+03,7.212784187201247732e+03,6.760066664140184912e+03,8.071004144244740019e+03,7.517803014254466689e+03,7.463057415836417931e+03,1.059927631036550520e+04,6.601029572671896858e+03,9.561484336853027344e+00,1.529837548732757568e-01,-2.294756323099136353e-01,1.610000000000000000e+02
7.497213345996109638e+03,6.977426055394318610e+03,6.564588576960905812e+03,7.830357090710906959e+03,7.255952357158969789e+03,7.209962911322761101e+03,1.033581518256723211e+04,6.422143904722395746e+03,9.561484336853027344e+00,1.529837548732757568e-01,-2.294756323099136353e-01,1.620000000000000000e+02
7.301666746771065846e+03,6.813920336016049077e+03,6.440371289963857635e+03,7.539132924972825094e+03,7.047307911299340049e+03,7.024272555160522643e+03,9.941578093874522892e+03,6.329664412614987668e+03,9.561484336853027344e+00,1.529837548732757568e-01,-2.294756323099136353e-01,1.630000000000000000e+02
7.096583817872672626e+03,6.637153239337418199e+03,6.309049128511164781e+03,7.292077301498697125e+03,6.841716271151275578e+03,6.834021015789296143e+03,9.587869140891099960e+03,6.199188063683024666e+03,9.561484336853027344e+00,1.529837548732757568e-01,-2.294756323099136353e-01,1.640000000000000000e+02
6.829469968696763317e+03,6.384571563119334314e+03,6.106533051928254281e+03,7.127610921097736536e+03,6.590628627096039054e+03,6.577891245609531325e+03,9.394362974602829127e+03,5.962046073707282630e+03,9.561484336853027344e+00,1.529837548732757568e-01,-2.294756323099136353e-01,1.650000000000000000e+02
6.539241020982982263e+03,6.103154059564907584e+03,5.870911700785194625e+03,6.974085003776209305e+03,6.314104973618153963e+03,6.289102993103273548e+03,9.263328552926697739e+03,5.699331168329750653e+03,9.561484336853027344e+00,1.529837548732757568e-01,-2.294756323099136353e-01,1.660000000000000000e+02
6.301520769052164724e+03,5.884405774236394791e+03,5.689341242108737788e+03,6.749531885906410025e+03,6.073184298022344592e+03,6.050903534619866150e+03,9.015153994227699513e+03,5.530478302844552672e+03,9.561484336853027344e+00,1.529837548732757568e-01,-2.294756323099136353e-01,1.670000000000000000e+02
6.124258284051057672e+03,5.738376046904641953e+03,5.578085392475728440e+03,6.475877647954417625e+03,5.884933826562230024e+03,5.882204880526726811e+03,8.637007203079087049e+03,5.448359842659267088e+03,9.561484336853027344e+00,1.529837548732757568e-01,-2.294756323099136353e-01,1.680000000000000000e+02
5.938184554489141192e+03,5.581349442743015970e+03,5.460358142010345546e+03,6.248157191508134019e+03,5.697669603520826058e+03,5.709651576608845971e+03,8.300969731273169600e+03,5.328006412771799660e+03,9.561484336853027344e+00,1.529837548732757568e-01,-2.294756323099136353e-01,1.690000000000000000e+02
5.692948669997367688e+03,5.352221085345201573e+03,5.271929018784016989e+03,6.102123030729937454e+03,5.462213169600297988e+03,5.468328804394144754e+03,8.126702487099956670e+03,5.099538026984630051e+03,9.561484336853027344e+00,1.529837548732757568e-01,-2.294756323099136353e-01,1.700000000000000000e+02
5.425242844940529721e+03,5.095831337858715415e+03,5.049193600384583078e+03,5.965089750068131252e+03,5.200691146226768979e+03,5.193626674470916441e+03,8.016642676989257779e+03,4.846367071514805502e+03,9.561484336853027344e+00,1.529837548732757568e-01,-2.294756323099136353e-01,1.710000000000000000e+02
5.207020895131703583e+03,4.899769325760586071e+03,4.878789393719290274e+03,5.757178735158661766e+03,4.976374225320477308e+03,4.973585527684734188e+03,7.790949388477123648e+03,4.690115814125795623e+03,9.561484336853027344e+00,1.529837548732757568e-01,-2.294756323099136353e-01,1.720000000000000000e+02
5.046501455930008888e+03,4.772733596731994112e+03,4.778376366044612951e+03,5.501273954857720128e+03,4.806440826715081130e+03,4.825874859568848478e+03,7.435183831957750044e+03,4.621420709853120570e+03,9.561484336853027344e+00,1.529837548732757568e-01,-2.294756323099136353e-01,1.730000000000000000e+02
4.877081148058277904e+03,4.631675823343824959e+03,4.672638305543639945e+03,5.290709098360868666e+03,4.639036656861388110e+03,4.672799949173951973e+03,7.119275673024109892e+03,4.513138837069129295e+03,9.561484336853027344e+00,1.529837548732757568e-01,-2.294756323099136353e-01,1.740000000000000000e+02
4.648966433306589352e+03,4.416062821025028825e+03,4.497431499438653191e+03,5.160703888871744311e+03,4.425399348043325517e+03,4.450370665588572592e+03,6.962308567198097080e+03,4.297875811594398328e+03,9.561484336853027344e+00,1.529837548732757568e-01,-2.294756323099136353e-01,1.750000000000000000e+02
4.398137294415389988e+03,4.171933822586360293e+03,4.288234503513012896e+03,5.040203806947667545e+03,4.186094369889951849e+03,4.196993545358721349e+03,6.868335655292055890e+03,4.061386135131106585e+03,9.561484336853027344e+00,1.529837548732757568e-01,-2.294756323099136353e-01,1.760000000000000000e+02
4.197336023481077063e+03,3.988712342317114235e+03,4.130852462610335351e+03,4.849154619306282257e+03,3.981166600231668781e+03,3.997901643244045317e+03,6.659319372722695334e+03,3.922448768881776687e+03,9.561484336853027344e+00,1.529837548732757568e-01,-2.294756323099136353e-01,1.770000000000000000e+02
4.055642986982889852e+03,3.875900140755548364e+03,4.042614844827137858e+03,4.607714066735344204e+03,3.827414313034159477e+03,3.866155234969923185e+03,6.320831471698928908e+03,3.868095154662486493e+03,9.561484336853027344e+00,1.529837548732757568e-01,-2.294756323099136353e-01,1.780000000000000000e+02
3.905289830133865962e+03,3.750510926885029676e+03,3.948138801087064621e+03,4.408482418271611095e+03,3.676318216685261177e+03,3.726559658618326921e+03,6.021755713396622014e+03,3.772445054218526820e+03,9.561484336853027344e+00,1.529837548732757568e-01,-2.294756323099136353e-01,1.790000000000000000e+02
3.694827158928686458e+03,3.551762637650692795e+03,3.783570503034636204e+03,4.289687365585491534e+03,3.481645718901745568e+03,3.521744894248320179e+03,5.880996306010252738e+03,3.571567111361041952e+03,9.561484336853027344e+00,1.529837548732757568e-01,-2.294756323099136353e-01,1.800000000000000000e+02
3.460084709862425825e+03,3.323491246130732634e+03,3.585309269164414218e+03,4.182985947916828991e+03,3.263554458698260532e+03,3.291225946485825261e+03,5.803504554778375677e+03,3.351990715148511299e+03,9.561484336853027344e+00,1.529837548732757568e-01,-2.294756323099136353e-01,1.810000000000000000e+02
3.274789768716369963e+03,3.152041150938399369e+03,3.439936118602730858e+03,4.007562478497411576e+03,3.081208917488150746e+03,3.115433135430373568e+03,5.612247319182355568e+03,3.231388396514400483e+03,9.484992027282714844e+00,2.294756323099136353e-01,-2.294756323099136353e-01,1.820000000000000000e+02
3.149224326597873642e+03,3.047380800948250453e+03,3.364339450661431329e+03,3.781183692946715382e+03,2.950881797704536893e+03,3.003829027690047042e+03,5.293384142811067250e+03,3.196367948026663726e+03,9.484992027282714844e+00,2.294756323099136353e-01,-2.294756323099136353e-01,1.830000000000000000e+02
3.016392478692845998e+03,2.930660702071171272e+03,3.282405957442972976e+03,3.595523793686533281e+03,2.821941941540383596e+03,2.881231680533763665e+03,5.015354839902955064e+03,3.120191303895309375e+03,9.484992027282714844e+00,2.294756323099136353e-01,-2.294756323099136353e-01,1.840000000000000000e+02
2.824430601234922051e+03,2.744327970486552658e+03,3.130822612120098711e+03,3.489720690900892350e+03,2.645114870688748397e+03,2.690859860650327846e+03,4.895151422363282109e+03,2.936000709891183760e+03,9.484992027282714844e+00,2.294756323099136353e-01,-2.294756323099136353e-01,1.850000000000000000e+02
2.607994589642295523e+03,2.532916472023116967e+03,2.946481956189970333e+03,3.396705448325199086e+03,2.439947859077280100e+03,2.472520257904316168e+03,4.836064685552351875e+03,2.727430706233199999e+03,9.484992027282714844e+00,2.294756323099136353e-01,-2.294756323099136353e-01,1.860000000000000000e+02
2.440103373188977457e+03,2.381917811749830435e+03,2.814248816407978666e+03,3.236432252529564721e+03,2.268124467835238192e+03,2.308763996995487105e+03,4.661824682382352876e+03,2.612764221362058379e+03,9.484992027282714844e+00,2.294756323099136353e-01,-2.294756323099136353e-01,1.870000000000000000e+02
2.330556226406336464e+03,2.297953966282359943e+03,2.749097018691743415e+03,3.026939609009268224e+03,2.149028315813131485e+03,2.212694017007119328e+03,4.360416755781337997e+03,2.582875253536369655e+03,9.484992027282714844e+00,2.294756323099136353e-01,-2.294756323099136353e-01,1.880000000000000000e+02
2.211704818525248356e+03,2.197774786912171749e+03,2.675989529296289220e+03,2.859410911547798605e+03,2.033717475533608649e+03,2.110406547534787023e+03,4.100088521850123470e+03,2.515019741410509596e+03,9.484992027282714844e+00,2.294756323099136353e-01,-2.294756323099136353e-01,1.890000000000000000e+02
2.032607188506688999e+03,2.024173294198199983e+03,2.533739528441924449e+03,2.771386502220744660e+03,1.872901385494591068e+03,1.941876255628528725e+03,3.996300768557427546e+03,2.342283056409663459e+03,9.484992027282714844e+00,2.294756323099136353e-01,-2.294756323099136353e-01,1.900000000000000000e+02
1.831088508849818481e+03,1.826758825314172554e+03,2.359257309851421724e+03,2.694004085869958089e+03,1.684968589812935079e+03,1.742329134227412396e+03,3.952638440377247207e+03,2.145123103043516494e+03,9.484992027282714844e+00,2.294756323099136353e-01,-2.294756323099136353e-01,1.910000000000000000e+02
1.682325115502811514e+03,1.692827101413844048e+03,2.237639032413369478e+03,2.546954106182373380e+03,1.530428459032375940e+03,1.592871758506702918e+03,3.794768835386356841e+03,2.039741527655156460e+03,9.484992027282714844e+00,2.294756323099136353e-01,-2.294756323099136353e-01,1.920000000000000000e+02
1.594707667779095573e+03,1.625471542131084334e+03,2.186261349134658303e+03,2.349754890479792266e+03,1.427975531923691051e+03,1.508241488943475360e+03,3.511237437524005145e+03,2.017533005661925017e+03,9.484992027282714844e+00,2.294756323099136353e-01,-2.294756323099136353e-01,1.930000000000000000e+02
1.497709260069759239e+03,1.540118929336432302e+03,2.129946863374510940e+03,2.195046860884376656e+03,1.327862470516523899e+03,1.416182106309875962e+03,3.268935527146985805e+03,1.956817153316982058e+03,9.484992027282714844e+00,2.294756323099136353e-01,-2.294756323099136353e-01,1.940000000000000000e+02
1.338368841431329656e+03,1.382856910882197099e+03,2.002572669517468057e+03,2.120501500545007730e+03,1.180339571450254425e+03,1.257693416683100622e+03,3.182231847539142109e+03,1.791501179923336167e+03,9.484992027282714844e+00,2.294756323099136353e-01,-2.294756323099136353e-01,1.950000000000000000e+02
1.152621845518604459e+03,1.204185537471919361e+03,1.838138112651848587e+03,2.056781757011602622e+03,1.005102461201541246e+03,1.069622677128162650e+03,3.154846927271130880e+03,1.603597772479787636e+03,9.484992027282714844e+00,2.294756323099136353e-01,-2.294756323099136353e-01,1.960000000000000000e+02
1.014347681108231427e+03,1.087404259635118251e+03,1.724590245464921281e+03,1.923730584560352781e+03,8.644448430185907455e+02,9.343438686463059639e+02,3.012945545713211686e+03,1.510219288846067684e+03,9.484992027282714844e+00,2.294756323099136353e-01,-2.294756323099136353e-01,1.970000000000000000e+02
9.343360070011490279e+02,1.033311056293539423e+03,1.681548145935181765e+03,1.741276867803846471e+03,7.765552868679883431e+02,8.658279528366861086e+02,2.745226338681840389e+03,1.500872456404580134e+03,9.484992027282714844e+00,2.294756323099136353e-01,-2.294756323099136353e-01,1.980000000000000000e+02
8.477048005433725848e+02,9.596493515982433564e+02,1.632630770592267254e+03,1.601205476852839638e+03,6.903604116129963586e+02,7.900663069323559284e+02,2.518234303335541881e+03,1.451212348028425822e+03,9.484992027282714844e+00,2.294756323099136353e-01,-2.294756323099136353e-01,1.990000000000000000e+02
7.050048749056491033e+02,8.139264028983716344e+02,1.513251813278281588e+03,1.539074114112275765e+03,5.575138947481304967e+02,6.470216636300829123e+02,2.445771336685079405e+03,1.295068233751509524e+03,9.484992027282714844e+00,2.294756323099136353e-01,-2.294756323099136353e-01,2.000000000000000000e+02
5.406160549988849198e+02,6.445277732939257476e+02,1.361689012243023626e+03,1.484679332422103471e+03,3.998998711320550683e+02,4.730751687681372459e+02,2.431770668301065598e+03,1.115953996469020694e+03,9.484992027282714844e+00,2.294756323099136353e-01,-2.294756323099136353e-01,2.010000000000000000e+02
4.244620185019844030e+02,5.345973070774080043e+02,1.264250871278134582e+03,1.359918822132635796e+03,2.782613342918634771e+02,3.507694922097430208e+02,2.303628343876461258e+03,1.031649342039519070e+03,9.484992027282714844e+00,2.294756323099136353e-01,-2.294756323099136353e-01,2.020000000000000000e+02
3.638990109137148465e+02,4.898995244808820644e+02,1.233796945700832566e+03,1.187427386367768122e+03,2.074633383793207031e+02,2.955302551935506017e+02,2.050585283168215028e+03,1.032540759558756235e+03,9.484992027282714844e+00,2.294756323099136353e-01,-2.294756323099136353e-01,2.030000000000000000e+02
2.916699386502568814e+02,4.320662387463207779e+02,1.192743893035836663e+03,1.059254320528254539e+03,1.364402524029483175e+02,2.346411857993916783e+02,1.837991320273583369e+03,9.961606154936330313e+02,9.484992027282714844e+00,2.294756323099136353e-01,-2.294756323099136353e-01,2.040000000000000000e+02
1.579947808124920812e+02,3.054022093198645962e+02,1.081141291796213409e+03,1.009664392643045176e+03,1.875877534303754146e+01,1.074577413974220690e+02,1.778635653602287675e+03,8.564156832401095016e+02,9.484992027282714844e+00,2.294756323099136353e-01,-2.294756323099136353e-01,2.050000000000000000e+02
-3.483827807940542698e-02,1.522331970539989925e+02,9.381776387899021756e+02,9.683289803080633646e+02,-1.243253375678232260e+02,-5.063570682504632714e+01,1.777544190700185027e+03,6.940799104148763945e+02,9.484992027282714844e+00,2.294756323099136353e-01,-2.294756323099136353e-01,2.060000000000000000e+02
-1.087722225523807538e+02,5.437453366273757638e+01,8.477529455357675943e+02,8.576815297682696837e+02,-2.334951486056402246e+02,-1.568122211250238252e+02,1.663836123045477507e+03,6.248203135968317383e+02,9.484992027282714844e+00,2.294756323099136353e-01,-2.294756323099136353e-01,2.070000000000000000e+02
-1.589164231289300915e+02,2.017700996198300345e+01,8.248804718750729990e+02,6.995229395659666807e+02,-2.924080219956194924e+02,-1.957543869862734027e+02,1.426626752704490173e+03,6.390603854450841936e+02,9.484992027282714844e+00,2.294756323099136353e-01,-2.294756323099136353e-01,2.080000000000000000e+02
-2.171356011460406989e+02,-2.774041549485855285e+01,7.959075607878821756e+02,5.846163679540604790e+02,-3.502450157229131946e+02,-2.416358553583281719e+02,1.229742030803035959e+03,6.139709831042923724e+02,9.446745872497558594e+00,1.147378161549568176e-01,-3.059675097465515137e-01,2.090000000000000000e+02
-3.328124683542405364e+02,-1.453320137778030130e+02,6.985072944876515066e+02,5.474590587493062230e+02,-4.547843057786408281e+02,-3.556214586917012639e+02,1.185340175087313582e+03,4.824012808709360343e+02,9.446745872497558594e+00,1.147378161549568176e-01,-3.059675097465515137e-01,2.100000000000000000e+02
-4.700687287216182995e+02,-2.883773700953561274e+02,5.667405157903381223e+02,5.185396090761537380e+02,-5.868069836367521930e+02,-5.015157427907770398e+02,1.199173902615706993e+03,3.260039927926195560e+02,9.446745872497558594e+00,1.147378161549568176e-01,-3.059675097465515137e-01,2.110000000000000000e+02
-5.588084707304201402e+02,-3.731366208681292846e+02,4.848311443071788744e+02,4.199028604652507966e+02,-6.862672662825661973e+02,-5.968355963846952363e+02,1.100827182812925912e+03,2.624748832131692780e+02,9.446745872497558594e+00,1.147378161549568176e-01,-3.059675097465515137e-01,2.120000000000000000e+02
-5.925978209286340643e+02,-3.927665367659938056e+02,4.709958827289665351e+02,2.724001789099575035e+02,-7.349218425692333767e+02,-6.270304039833176830e+02,8.786413446644278338e+02,2.823852653756914606e+02,9.446745872497558594e+00,1.147378161549568176e-01,-3.059675097465515137e-01,2.130000000000000000e+02
-6.379662832858043657e+02,-4.269335090751615098e+02,4.513325614266709636e+02,1.665996919904555398e+02,-7.811281518428941126e+02,-6.644302282100720731e+02,6.954517331368633677e+02,2.624509090464603105e+02,9.446745872497558594e+00,1.147378161549568176e-01,-3.059675097465515137e-01,2.140000000000000000e+02
-7.431139346509885399e+02,-5.313242669330072658e+02,3.619893830399882972e+02,1.375259342880399345e+02,-8.722908709562104832e+02,-7.675902645821997794e+02,6.637816609168539799e+02,1.372964906421880187e+02,9.446745872497558594e+00,1.147378161549568176e-01,-3.059675097465515137e-01,2.150000000000000000e+02
-8.718904448931725710e+02,-6.612934056804022021e+02,2.380265612437788150e+02,1.168100400130610979e+02,-9.894728601851224994e+02,-9.011141252763795819e+02,6.908764543519578183e+02,-9.964121092813002178e+00,9.446745872497558594e+00,1.147378161549568176e-01,-3.059675097465515137e-01,2.160000000000000000e+02
-9.530747983803898933e+02,-7.345177439572892126e+02,1.644287107466470843e+02,2.805791976250611697e+01,-1.074698976642416710e+03,-9.849914561542868796e+02,6.069622611215395409e+02,-6.397397268726786024e+01,9.446745872497558594e+00,1.147378161549568176e-01,-3.059675097465515137e-01,2.170000000000000000e+02
-9.773022586586394027e+02,-7.445124414271895148e+02,1.580838470184869493e+02,-1.074696121762858638e+02,-1.111565591754792649e+03,-1.004480857812379782e+03,3.993135801500170601e+02,-3.698294322576452942e+01,9.446745872497558594e+00,1.147378161549568176e-01,-3.059675097465515137e-01,2.180000000000000000e+02
-1.009809346042503194e+03,-7.690226033133965302e+02,1.453695916074168508e+02,-2.006725458550049552e+02,-1.147373833750421909e+03,-1.030397948547266651e+03,2.295368284501705602e+02,-5.080589365562968851e+01,9.446745872497558594e+00,1.147378161549568176e-01,-3.059675097465515137e-01,2.190000000000000000e+02
-1.101426094951347750e+03,-8.627131762314093066e+02,6.511979460169868617e+01,-2.178674807484626399e+02,-1.227303647959670116e+03,-1.121913141627323739e+03,2.099012725373709145e+02,-1.678057778676159160e+02,9.446745872497558594e+00,1.147378161549568176e-01,-3.059675097465515137e-01,2.200000000000000000e+02
-1.218654050960843279e+03,-9.818160925056513406e+02,-4.725320432549006000e+01,-2.272826271244089185e+02,-1.331814000564437492e+03,-1.244680522171480106e+03,2.475917553949211651e+02,-3.053863156157135563e+02,9.446745872497558594e+00,1.147378161549568176e-01,-3.059675097465515137e-01,2.210000000000000000e+02
-1.288934377418229815e+03,-1.044501745832174493e+03,-1.100883685151172813e+02,-3.053257890939403296e+02,-1.403283169091197578e+03,-1.317565013253952202e+03,1.729287737601439403e+02,-3.503509612088191716e+02,9.446745872497558594e+00,1.147378161549568176e-01,-3.059675097465515137e-01,2.220000000000000000e+02
-1.300583086247940173e+03,-1.044322741484494372e+03,-1.089396317879113667e+02,-4.316420322967114771e+02,-1.425809707114360435e+03,-1.324808782937790738e+03,-2.529502792915445752e+01,-3.143837666361137053e+02,9.446745872497558594e+00,1.147378161549568176e-01,-3.059675097465515137e-01,2.230000000000000000e+02
-1.320317521260139756e+03,-1.059838746497362763e+03,-1.163656246173088675e+02,-5.167514828860350917e+02,-1.448516386219470860e+03,-1.338399365191058223e+03,-1.835651690077966123e+02,-3.177649350203578251e+02,9.446745872497558594e+00,1.147378161549568176e-01,-3.059675097465515137e-01,2.240000000000000000e+02
-1.402049139126982709e+03,-1.145857199344591436e+03,-1.911974526327624062e+02,-5.248413562738776363e+02,-1.518458479488785088e+03,-1.418237747233913751e+03,-1.901974896045521746e+02,-4.241060804016101429e+02,9.446745872497558594e+00,1.147378161549568176e-01,-3.059675097465515137e-01,2.250000000000000000e+02
-1.511654878716692338e+03,-1.257202617168055895e+03,-2.966577422788202512e+02,-5.234304804667567623e+02,-1.614844796838379125e+03,-1.528754547743768626e+03,-1.404133000491569874e+02,-5.529703869003733416e+02,9.446745872497558594e+00,1.147378161549568176e-01,-3.059675097465515137e-01,2.260000000000000000e+02
-1.573353425098711341e+03,-1.311814355723125573e+03,-3.509025727982589160e+02,-5.910109983656852819e+02,-1.676962082546066767e+03,-1.588613079963760129e+03,-2.044325669175777875e+02,-5.906967160326307749e+02,9.446745872497558594e+00,1.147378161549568176e-01,-3.059675097465515137e-01,2.270000000000000000e+02
-1.574813824717951320e+03,-1.305226688081701468e+03,-3.405026943184507218e+02,-7.090225402852574916e+02,-1.687983369029874211e+03,-1.583916359126204952e+03,-3.919907780013390948e+02,-5.471638066033196992e+02,9.446745872497558594e+00,1.147378161549568176e-01,-3.059675097465515137e-01,2.280000000000000000e+02
-1.584456143470334609e+03,-1.316636897478209903e+03,-3.395858130027284005e+02,-7.871334524673102351e+02,-1.697763875435677619e+03,-1.587092085479608613e+03,-5.392842513877367310e+02,-5.420081785322081487e+02,9.446745872497558594e+00,1.147378161549568176e-01,-3.059675097465515137e-01,2.290000000000000000e+02
-1.656099531371268313e+03,-1.398279130091746993e+03,-4.073429494982874530e+02,-7.877056661160058866e+02,-1.753438976628323871e+03,-1.655912991789047737e+03,-5.355216362306591691e+02,-6.385100386193994382e+02,9.446745872497558594e+00,1.147378161549568176e-01,-3.059675097465515137e-01,2.300000000000000000e+02
-1.754378185209479398e+03,-1.502325885727804234e+03,-5.060139964579161642e+02,-7.774775177494780110e+02,-1.835792865453162449e+03,-1.753866139375283637e+03,-4.752540106399537763e+02,-7.557805163542693663e+02,9.446745872497558594e+00,1.147378161549568176e-01,-3.059675097465515137e-01,2.310000000000000000e+02
-1.804841994561581942e+03,-1.546386374853601410e+03,-5.534478403457142122e+02,-8.347324062751358724e+02,-1.888311962374232280e+03,-1.801705660279465974e+03,-5.271220321943692397e+02,-7.816527636698810966e+02,9.446745872497558594e+00,1.147378161549568176e-01,-3.059675097465515137e-01,2.320000000000000000e+02
-1.797543272171592434e+03,-1.526533541818383583e+03,-5.369373996053363953e+02,-9.407814904566812402e+02,-1.895380845224322002e+03,-1.787326396793271670e+03,-7.014330666557789300e+02,-7.287474162971693659e+02,9.446745872497558594e+00,1.147378161549568176e-01,-3.059675097465515137e-01,2.330000000000000000e+02
-1.799959053036001478e+03,-1.522712620919009169e+03,-5.305899815705342917e+02,-1.006266503808133166e+03,-1.901982381679485115e+03,-1.781879251153956830e+03,-8.367066434821199437e+02,-7.168203914634291323e+02,9.446745872497558594e+00,1.147378161549568176e-01,-3.059675097465515137e-01,2.340000000000000000e+02
-1.863164343106257547e+03,-1.589667397629796142e+03,-5.929923954875494019e+02,-9.956956040568802564e+02,-1.950895400075706675e+03,-1.840953571934918273e+03,-8.231751814114231820e+02,-8.067798833337037649e+02,9.446745872497558594e+00,1.147378161549568176e-01,-3.059675097465515137e-01,2.350000000000000000e+02
-1.952182359055868346e+03,-1.682477823229781279e+03,-6.869106836347291392e+02,-9.769925849969295086e+02,-2.024180247472613701e+03,-1.928296944193726176e+03,-7.543525742568635906e+02,-9.170968130590426881e+02,9.446745872497558594e+00,1.147378161549568176e-01,-3.059675097465515137e-01,2.360000000000000000e+02
-1.995073667653037774e+03,-1.717855002160433287e+03,-7.305835961214670533e+02,-1.027122607218921985e+03,-2.067513698005038805e+03,-1.966887910647421450e+03,-7.972729062165417417e+02,-9.370469830284091586e+02,9.446745872497558594e+00,1.147378161549568176e-01,-3.059675097465515137e-01,2.370000000000000000e+02
-1.981105532709255385e+03,-1.687826912206827728e+03,-7.091172407035137439e+02,-1.125057621339844445e+03,-2.064565350626381587e+03,-1.945590636681581600e+03,-9.611818769809397054e+02,-8.791393516264333812e+02,9.446745872497558594e+00,1.147378161549568176e-01,-3.059675097465515137e-01,2.380000000000000000e+02
-1.973709545132863241e+03,-1.671301917968471116e+03,-6.940221776030471119e+02,-1.180881130879868579e+03,-2.060759616709270631e+03,-1.934249208937964795e+03,-1.084761481808298413e+03,-8.614967977793112368e+02,9.446745872497558594e+00,1.147378161549568176e-01,-3.059675097465515137e-01,2.390000000000000000e+02
-2.022516222649263000e+03,-1.726622383337889005e+03,-7.448268536562454756e+02,-1.160821288969076704e+03,-2.101620510746382024e+03,-1.987325336956572301e+03,-1.059680497238092357e+03,-9.452903058031206456e+02,9.408499717712402344e+00,1.529837548732757568e-01,-3.442134261131286621e-01,2.400000000000000000e+02
-2.095967410721668784e+03,-1.811344006380595147e+03,-8.273038830488608255e+02,-1.134444507140653513e+03,-2.168563781639489662e+03,-2.069378387009538073e+03,-9.806202097003451854e+02,-1.050883520073986801e+03,9.408499717712402344e+00,1.529837548732757568e-01,-3.442134261131286621e-01,2.410000000000000000e+02
-2.125883731979629374e+03,-1.840713800389466087e+03,-8.606302056013673791e+02,-1.178431241030174533e+03,-2.203230605546563311e+03,-2.104237625419285905e+03,-1.014297819778133999e+03,-1.067788358857920684e+03,9.408499717712402344e+00,1.529837548732757568e-01,-3.442134261131286621e-01,2.420000000000000000e+02
-2.101819874385224466e+03,-1.805511517736586029e+03,-8.295618172025870081e+02,-1.270622983068393296e+03,-2.189360215962869916e+03,-2.079528408583013515e+03,-1.169418052854709458e+03,-1.007122810654425848e+03,9.408499717712402344e+00,1.529837548732757568e-01,-3.442134261131286621e-01,2.430000000000000000e+02
-2.085993859395439358e+03,-1.785210114626846007e+03,-8.068675955662283741e+02,-1.320957819891258623e+03,-2.176727388918245197e+03,-2.063495032648459528e+03,-1.285074897067009260e+03,-9.865132367240039457e+02,9.408499717712402344e+00,1.529837548732757568e-01,-3.442134261131286621e-01,2.440000000000000000e+02
-2.128186868536011389e+03,-1.836805823376177614e+03,-8.532070807434829476e+02,-1.296154230541171273e+03,-2.211302642864755398e+03,-2.111138044772797002e+03,-1.253074141841434539e+03,-1.067379813742016267e+03,9.408499717712402344e+00,1.529837548732757568e-01,-3.442134261131286621e-01,2.450000000000000000e+02
-2.196821036373577954e+03,-1.915316937754062565e+03,-9.326696105217297372e+02,-1.265506929192109965e+03,-2.270455011343279693e+03,-2.187899809432163238e+03,-1.167228310277168021e+03,-1.169250243329954174e+03,9.408499717712402344e+00,1.529837548732757568e-01,-3.442134261131286621e-01,2.460000000000000000e+02
-2.221516429792223789e+03,-1.937693503557338772e+03,-9.623498768966383068e+02,-1.304828655465633346e+03,-2.295234386154515960e+03,-2.215704625741351265e+03,-1.194072340885681115e+03,-1.180201231938522142e+03,9.408499717712402344e+00,1.529837548732757568e-01,-3.442134261131286621e-01,2.470000000000000000e+02
-2.190258386123416130e+03,-1.898900778940838791e+03,-9.274463407377297699e+02,-1.391606645050889711e+03,-2.272941811477237934e+03,-2.179484530494419232e+03,-1.343369707316305721e+03,-1.111098938319865738e+03,9.408499717712402344e+00,1.529837548732757568e-01,-3.442134261131286621e-01,2.480000000000000000e+02
-2.167335696052532512e+03,-1.877391272162725727e+03,-9.015826366110095478e+02,-1.435932354534688784e+03,-2.253938131806003184e+03,-2.148654621047511682e+03,-1.454335771467232007e+03,-1.080681456570147020e+03,9.408499717712402344e+00,1.529837548732757568e-01,-3.442134261131286621e-01,2.490000000000000000e+02
-2.204987527740110636e+03,-1.924754585244232658e+03,-9.443911806037294809e+02,-1.404348019631185707e+03,-2.281537138908424822e+03,-2.182561149625005783e+03,-1.417145302056302171e+03,-1.152000815627929114e+03,9.408499717712402344e+00,1.529837548732757568e-01,-3.442134261131286621e-01,2.500000000000000000e+02
-2.270326905710211577e+03,-1.994635282549365002e+03,-1.019127589938594610e+03,-1.365711583180669550e+03,-2.333560464181919087e+03,-2.248985502520290538e+03,-1.324391522619322132e+03,-1.246230902948844232e+03,9.408499717712402344e+00,1.529837548732757568e-01,-3.442134261131286621e-01,2.510000000000000000e+02
-2.290775103868456426e+03,-2.007517162396601634e+03,-1.044039997092246267e+03,-1.396344105971820682e+03,-2.353974555430697364e+03,-2.268991010968465162e+03,-1.342860916393841762e+03,-1.252369978725935653e+03,9.408499717712402344e+00,1.529837548732757568e-01,-3.442134261131286621e-01,2.520000000000000000e+02
-2.255499354457415393e+03,-1.960067335438118789e+03,-1.005597874506516746e+03,-1.475746343465028986e+03,-2.329195398081630628e+03,-2.227035227294089054e+03,-1.482528900507115395e+03,-1.180656846024313381e+03,9.408499717712402344e+00,1.529837548732757568e-01,-3.442134261131286621e-01,2.530000000000000000e+02
-2.230295459648022188e+03,-1.929585489020038040e+03,-9.773355092647361744e+02,-1.515831304374598403e+03,-2.306028203956320795e+03,-2.193112445196940826e+03,-1.582508585878358645e+03,-1.148018017580086962e+03,9.408499717712402344e+00,1.529837548732757568e-01,-3.442134261131286621e-01,2.540000000000000000e+02
-2.265020703210569081e+03,-1.968296093390152237e+03,-1.018417503819178819e+03,-1.482396915687352703e+03,-2.328120524352138091e+03,-2.225004294999626836e+03,-1.534197089675501047e+03,-1.215768277791252331e+03,9.408499717712402344e+00,1.529837548732757568e-01,-3.442134261131286621e-01,2.550000000000000000e+02
-2.324130414417074462e+03,-2.031973122374438390e+03,-1.091698962696253147e+03,-1.441587195374290786e+03,-2.376649287759849358e+03,-2.287297169398699225e+03,-1.432078240248731163e+03,-1.304296794449679510e+03,9.408499717712402344e+00,1.529837548732757568e-01,-3.442134261131286621e-01,2.560000000000000000e+02
-2.336694271285159630e+03,-2.040685169458653945e+03,-1.114445455994975418e+03,-1.468306032342028630e+03,-2.395429941830327152e+03,-2.300961497183997380e+03,-1.442585796489896893e+03,-1.303161135387756076e+03,9.408499717712402344e+00,1.529837548732757568e-01,-3.442134261131286621e-01,2.570000000000000000e+02
-2.294290147369963961e+03,-1.988735886711287094e+03,-1.071932556883051802e+03,-1.542962605390202043e+03,-2.367399390689903157e+03,-2.253628999205941000e+03,-1.573477711550263848e+03,-1.224292419585139214e+03,9.408499717712402344e+00,1.529837548732757568e-01,-3.442134261131286621e-01,2.580000000000000000e+02
-2.261585506529892882e+03,-1.952546778570915194e+03,-1.037264042812203115e+03,-1.578284403899579047e+03,-2.338468747336205524e+03,-2.216166107180164545e+03,-1.663732007018094009e+03,-1.185955079030448360e+03,9.408499717712402344e+00,1.529837548732757568e-01,-3.442134261131286621e-01,2.590000000000000000e+02
-2.287350453358101731e+03,-1.985091625899818609e+03,-1.070192344231611060e+03,-1.539741385039171291e+03,-2.354334582288640377e+03,-2.243536149826564724e+03,-1.607345530436774425e+03,-1.248996811702209925e+03,9.408499717712402344e+00,1.529837548732757568e-01,-3.442134261131286621e-01,2.600000000000000000e+02
-2.338658570624182175e+03,-2.042922304179780440e+03,-1.134997024743989641e+03,-1.493764442159066675e+03,-2.396388707299236557e+03,-2.299147877543505274e+03,-1.499925755123407725e+03,-1.332539791913957743e+03,9.484992027282714844e+00,1.529837548732757568e-01,-1.912296712398529053e-01,2.610000000000000000e+02
-2.346780238148980061e+03,-2.046879945247133946e+03,-1.150339717807679335e+03,-1.516218108592047429e+03,-2.406867814216269835e+03,-2.306503955689942813e+03,-1.505884522397025648e+03,-1.326249557011581601e+03,9.484992027282714844e+00,1.529837548732757568e-01,-1.912296712398529053e-01,2.620000000000000000e+02
-2.301125292243092190e+03,-1.991878463252083748e+03,-1.101343890097725307e+03,-1.586970352061875019e+03,-2.369524831969012666e+03,-2.254804807592845464e+03,-1.631565160298599949e+03,-1.243212466332190161e+03,9.484992027282714844e+00,1.529837548732757568e-01,-1.912296712398529053e-01,2.630000000000000000e+02
-2.263150266804619605e+03,-1.953671814203901704e+03,-1.059641232012534601e+03,-1.617281563779906719e+03,-2.332956723854753363e+03,-2.213515991072938050e+03,-1.717247995855293993e+03,-1.201842300356544001e+03,9.484992027282714844e+00,1.529837548732757568e-01,-1.912296712398529053e-01,2.640000000000000000e+02
-2.280995364663096552e+03,-1.983512878118288427e+03,-1.084494791346809507e+03,-1.573139992862284998e+03,-2.343216753851023896e+03,-2.237248467308610998e+03,-1.657743376213695228e+03,-1.262504207003330521e+03,9.484992027282714844e+00,1.529837548732757568e-01,-1.912296712398529053e-01,2.650000000000000000e+02
-2.322407331348338630e+03,-2.036831554193053307e+03,-1.141484534700915901e+03,-1.522871502330628573e+03,-2.380162809865470990e+03,-2.291279524769668569e+03,-1.546855256948003444e+03,-1.345190487992630551e+03,9.484992027282714844e+00,1.529837548732757568e-01,-1.912296712398529053e-01,2.660000000000000000e+02
-2.319837818074433017e+03,-2.034770121507241129e+03,-1.150853858900420164e+03,-1.542200230591341096e+03,-2.386234803671908594e+03,-2.298956408027675934e+03,-1.547480100350190696e+03,-1.340763401558262558e+03,9.484992027282714844e+00,1.529837548732757568e-01,-1.912296712398529053e-01,2.670000000000000000e+02
-2.265758523537735527e+03,-1.973468610631271076e+03,-1.098831160311372514e+03,-1.608976256747473599e+03,-2.346380576079061939e+03,-2.246384955191184417e+03,-1.667144532660628101e+03,-1.260981035640359551e+03,9.484992027282714844e+00,1.529837548732757568e-01,-1.912296712398529053e-01,2.680000000000000000e+02
-2.224612468398841884e+03,-1.929949472613308899e+03,-1.057738849134777411e+03,-1.633919086801945014e+03,-2.308102667207389459e+03,-2.201319874323795375e+03,-1.747875721351490938e+03,-1.221245362651725372e+03,9.484992027282714844e+00,1.529837548732757568e-01,-1.912296712398529053e-01,2.690000000000000000e+02
-2.243798224223604848e+03,-1.956154297713688720e+03,-1.086069373925527543e+03,-1.584410076855532679e+03,-2.315144136583645377e+03,-2.219254614982650310e+03,-1.684389453392748692e+03,-1.280600570870579759e+03,9.484992027282714844e+00,1.529837548732757568e-01,-1.912296712398529053e-01,2.700000000000000000e+02
-2.288009032499421664e+03,-2.007503842574491500e+03,-1.146911875380355923e+03,-1.529336507657657421e+03,-2.346995860421535326e+03,-2.265823016797356104e+03,-1.569581225047972111e+03,-1.359413580101660045e+03,9.484992027282714844e+00,1.529837548732757568e-01,-1.912296712398529053e-01,2.710000000000000000e+02
-2.288165027467799518e+03,-2.004494332014437532e+03,-1.158429208499457673e+03,-1.543355966924820677e+03,-2.347003062596035306e+03,-2.264106264311272753e+03,-1.566342375217705921e+03,-1.348526437211041412e+03,9.484992027282714844e+00,1.529837548732757568e-01,-1.912296712398529053e-01,2.720000000000000000e+02
-2.235981649561193990e+03,-1.942146588413894278e+03,-1.106243936054532242e+03,-1.603966058901984070e+03,-2.300264416745108974e+03,-2.202067791176023093e+03,-1.682670388499955152e+03,-1.260389769067911402e+03,9.484992027282714844e+00,1.529837548732757568e-01,-1.912296712398529053e-01,2.730000000000000000e+02
-2.193801856052888979e+03,-1.897013055170567895e+03,-1.062199217634451998e+03,-1.623637334967945208e+03,-2.254646345290952013e+03,-2.150254277446785636e+03,-1.760427009525512403e+03,-1.213383252189361883e+03,9.484992027282714844e+00,1.529837548732757568e-01,-1.912296712398529053e-01,2.740000000000000000e+02
-2.207991516282945668e+03,-1.922165925591567429e+03,-1.084723811726937129e+03,-1.571544733978700606e+03,-2.255332554974478626e+03,-2.164152423537017967e+03,-1.693564043888320157e+03,-1.268538690828219842e+03,9.484992027282714844e+00,1.529837548732757568e-01,-1.912296712398529053e-01,2.750000000000000000e+02
-2.245834540240804927e+03,-1.974012035432151606e+03,-1.139281264803707018e+03,-1.515731928492510633e+03,-2.282459032407012273e+03,-2.207096507967189609e+03,-1.574483983669382724e+03,-1.343949233722829376e+03,9.484992027282714844e+00,1.529837548732757568e-01,-1.912296712398529053e-01,2.760000000000000000e+02
-2.241441381304945025e+03,-1.971356422896638833e+03,-1.147334666872044181e+03,-1.528241731215499385e+03,-2.278721081993317057e+03,-2.201197921921337183e+03,-1.566518025985362328e+03,-1.327424857478721606e+03,9.484992027282714844e+00,1.529837548732757568e-01,-1.912296712398529053e-01,2.770000000000000000e+02
-2.186478816702241602e+03,-1.906238822585417438e+03,-1.094733223558912869e+03,-1.585604483192782936e+03,-2.229609439432795625e+03,-2.135538431634491644e+03,-1.678593943936783035e+03,-1.232424979720484771e+03,9.484992027282714844e+00,1.529837548732757568e-01,-1.912296712398529053e-01,2.780000000000000000e+02
-2.141258362983346160e+03,-1.854383269378377008e+03,-1.050871618959939951e+03,-1.601479629311537792e+03,-2.184567268475098899e+03,-2.081719803310294083e+03,-1.752638472274989908e+03,-1.180349847566856624e+03,9.484992027282714844e+00,1.529837548732757568e-01,-1.912296712398529053e-01,2.790000000000000000e+02
-2.151414352269192023e+03,-1.870173683923405406e+03,-1.073199138555381069e+03,-1.545383413296909566e+03,-2.188700345759911215e+03,-2.094948333065087354e+03,-1.681590338604175486e+03,-1.232814300600868592e+03,9.484992027282714844e+00,1.529837548732757568e-01,-1.912296712398529053e-01,2.800000000000000000e+02
-2.185207947449183848e+03,-1.911631528017318487e+03,-1.128194184750343993e+03,-1.484317953985781060e+03,-2.219931106115498551e+03,-2.137322822686423024e+03,-1.557407589040736639e+03,-1.306836980299825882e+03,9.484992027282714844e+00,1.529837548732757568e-01,-1.912296712398529053e-01,2.810000000000000000e+02
-2.177873032024341228e+03,-1.900010872347827899e+03,-1.137168777989505543e+03,-1.490985801465092663e+03,-2.219164743016975990e+03,-2.129678152871993007e+03,-1.544191975591929804e+03,-1.290039309987321758e+03,9.484992027282714844e+00,1.529837548732757568e-01,-1.912296712398529053e-01,2.820000000000000000e+02
-2.121367431352284257e+03,-1.830289461420667067e+03,-1.084355146060748666e+03,-1.544375632274000964e+03,-2.171325619770610501e+03,-2.060670587252972837e+03,-1.651184536762215430e+03,-1.195123816342980717e+03,9.484992027282714844e+00,1.529837548732757568e-01,-1.912296712398529053e-01,2.830000000000000000e+02
-2.075622319758957019e+03,-1.777866862833989217e+03,-1.038789748899667757e+03,-1.558412539540286161e+03,-2.125008299100920340e+03,-2.002369493985832378e+03,-1.719599807263079128e+03,-1.140690647800223815e+03,9.484992027282714844e+00,1.529837548732757568e-01,-1.912296712398529053e-01,2.840000000000000000e+02
-2.085757838447565518e+03,-1.792927167689749695e+03,-1.058906365595579700e+03,-1.500039465467933042e+03,-2.124309871366376683e+03,-2.010588793274520867e+03,-1.642682772681164352e+03,-1.186913332775815434e+03,9.484992027282714844e+00,1.529837548732757568e-01,-1.912296712398529053e-01,2.850000000000000000e+02
-2.119025384503574969e+03,-1.830840482368226731e+03,-1.110979672191208010e+03,-1.434966080876229171e+03,-2.148121462576940758e+03,-2.048188418043060665e+03,-1.514245553162294527e+03,-1.254031539592064291e+03,9.484992027282714844e+00,2.677215635776519775e-01,-2.677215635776519775e-01,2.860000000000000000e+02
-2.108563661284049886e+03,-1.814851097480008320e+03,-1.114992377596889128e+03,-1.437420866447419030e+03,-2.140573375078285608e+03,-2.037449725240299813e+03,-1.499063133491457847e+03,-1.234548754457664472e+03,9.484992027282714844e+00,2.677215635776519775e-01,-2.677215635776519775e-01,2.870000000000000000e+02
-2.045204899385007593e+03,-1.743033368748538123e+03,-1.055402724965888410e+03,-1.487820564030842434e+03,-2.088996185860634796e+03,-1.968233944845474980e+03,-1.604690632841819024e+03,-1.142214241157491415e+03,9.484992027282714844e+00,2.677215635776519775e-01,-2.677215635776519775e-01,2.880000000000000000e+02
-1.991455561840266455e+03,-1.691665764697840132e+03,-1.003151633752919224e+03,-1.500103209154342039e+03,-2.041041260111955125e+03,-1.912175824246918637e+03,-1.671001477209898439e+03,-1.092723049976297261e+03,9.484992027282714844e+00,2.677215635776519775e-01,-2.677215635776519775e-01,2.890000000000000000e+02
-1.995786069906782359e+03,-1.710206777330084151e+03,-1.017346630523337808e+03,-1.441442945072820294e+03,-2.038316751110125551e+03,-1.923815496849203555e+03,-1.591930304266592429e+03,-1.143967195986955630e+03,9.484992027282714844e+00,2.677215635776519775e-01,-2.677215635776519775e-01,2.900000000000000000e+02
-2.023992237539579946e+03,-1.752335174404572172e+03,-1.063090298920698842e+03,-1.378020637734058255e+03,-2.059116711716671489e+03,-1.965686643272763831e+03,-1.461903335744758806e+03,-1.216284186097538623e+03,9.484992027282714844e+00,2.677215635776519775e-01,-2.677215635776519775e-01,2.910000000000000000e+02
-2.005215690217211886e+03,-1.738880504142913196e+03,-1.060379972110380550e+03,-1.382981934402905608e+03,-2.048489537224975720e+03,-1.960207544631795827e+03,-1.444735352973671979e+03,-1.201813945605290428e+03,9.484992027282714844e+00,2.677215635776519775e-01,-2.677215635776519775e-01,2.920000000000000000e+02
-1.931328627211951243e+03,-1.666921950929467130e+03,-9.960062311762703757e+02,-1.434548726346511103e+03,-1.993660770303082245e+03,-1.895928922995333778e+03,-1.547376258023050468e+03,-1.112334206241917855e+03,9.484992027282714844e+00,2.677215635776519775e-01,-2.677215635776519775e-01,2.930000000000000000e+02
-1.870136751755817386e+03,-1.614144717859155207e+03,-9.423706019805467804e+02,-1.445833108018479834e+03,-1.941894873602061125e+03,-1.841816020503927575e+03,-1.610912443054876348e+03,-1.062679761171873906e+03,9.484992027282714844e+00,2.677215635776519775e-01,-2.677215635776519775e-01,2.940000000000000000e+02
-1.872022533302784723e+03,-1.631431722104691289e+03,-9.570330162899754214e+02,-1.385237797398407565e+03,-1.936007540366048488e+03,-1.850793455473802169e+03,-1.530545504726254876e+03,-1.111775272876988311e+03,9.484992027282714844e+00,2.677215635776519775e-01,-2.677215635776519775e-01,2.950000000000000000e+02
-1.900938319150576717e+03,-1.672710161954142677e+03,-1.003053922206023344e+03,-1.320320659879998857e+03,-1.954872287109421450e+03,-1.886503371518432687e+03,-1.400159916900520329e+03,-1.180108940303774943e+03,9.484992027282714844e+00,2.677215635776519775e-01,-2.677215635776519775e-01,2.960000000000000000e+02
-1.885838615107841179e+03,-1.659377588735236714e+03,-1.000523718190324871e+03,-1.324089488945472112e+03,-1.941434989387878886e+03,-1.874024906402253691e+03,-1.382140277016493201e+03,-1.158959406095229497e+03,9.484992027282714844e+00,2.677215635776519775e-01,-2.677215635776519775e-01,2.970000000000000000e+02
-1.818561996832879231e+03,-1.588723170991564984e+03,-9.372084470061163302e+02,-1.373861600143038231e+03,-1.881623547550214425e+03,-1.803596272774397221e+03,-1.482980022809009824e+03,-1.061369420762574009e+03,9.484992027282714844e+00,2.677215635776519775e-01,-2.677215635776519775e-01,2.980000000000000000e+02
-1.762792139098317421e+03,-1.536198976179362944e+03,-8.853353605535703537e+02,-1.382989858500764967e+03,-1.824855909181038442e+03,-1.744212581425406825e+03,-1.544516787284006568e+03,-1.004990972903922739e+03,9.484992027282714844e+00,2.677215635776519775e-01,-2.677215635776519775e-01,2.990000000000000000e+02
-1.765498795378549403e+03,-1.550440410804083513e+03,-9.017414678595778241e+02,-1.321110983092850802e+03,-1.815806338584501646e+03,-1.748581733630169765e+03,-1.462663250387118751e+03,-1.049184769653365947e+03,9.484992027282714844e+00,2.677215635776519775e-01,-2.677215635776519775e-01,3.000000000000000000e+02
-1.794032622632552375e+03,-1.587124177461497311e+03,-9.495371901529433671e+02,-1.255629372972929559e+03,-1.832531569221955579e+03,-1.780215191830633557e+03,-1.330930682502108539e+03,-1.112736311549611855e+03,9.484992027282714844e+00,2.677215635776519775e-01,-2.677215635776519775e-01,3.010000000000000000e+02
-1.782318228925309086e+03,-1.570887589428821229e+03,-9.493867612480280513e+02,-1.257522193509637873e+03,-1.818015784877559781e+03,-1.762977870113398239e+03,-1.310711983442954079e+03,-1.086517631824808632e+03,9.484992027282714844e+00,2.677215635776519775e-01,-2.677215635776519775e-01,3.020000000000000000e+02
-1.721383782486787823e+03,-1.498404784135083901e+03,-8.893225300245321705e+02,-1.302960481103335042e+03,-1.759880843860137247e+03,-1.685762148697718658e+03,-1.408415668653702596e+03,-9.842196836372349935e+02,9.484992027282714844e+00,2.677215635776519775e-01,-2.677215635776519775e-01,3.030000000000000000e+02
-1.671697219043566292e+03,-1.442397414177947212e+03,-8.412709243852295913e+02,-1.306378348602404003e+03,-1.706764059778073715e+03,-1.618935742871970433e+03,-1.467044174042959639e+03,-9.232756120234516857e+02,9.484992027282714844e+00,2.677215635776519775e-01,-2.677215635776519775e-01,3.040000000000000000e+02
-1.680083532318822108e+03,-1.452258209353010898e+03,-8.612798720447863161e+02,-1.238531926348354318e+03,-1.700652438364206319e+03,-1.618579882996706147e+03,-1.383339324899297935e+03,-9.634534246764378622e+02,9.484992027282714844e+00,2.677215635776519775e-01,-2.677215635776519775e-01,3.050000000000000000e+02
-1.713839704042395169e+03,-1.486461391916709545e+03,-9.115157756608277850e+02,-1.166919185672890308e+03,-1.719690862474370078e+03,-1.649375434980709542e+03,-1.250355882787505834e+03,-1.025604561118576385e+03,9.484992027282714844e+00,2.677215635776519775e-01,-2.677215635776519775e-01,3.060000000000000000e+02
-1.704063148949117021e+03,-1.468735719431282632e+03,-9.119839908324938733e+02,-1.163616479721327778e+03,-1.708193185314405127e+03,-1.633432121862057102e+03,-1.228856361613834451e+03,-1.001365523342785309e+03,9.484992027282714844e+00,2.677215635776519775e-01,-2.677215635776519775e-01,3.070000000000000000e+02
-1.640792169659882347e+03,-1.392608329077902454e+03,-8.506040034556717728e+02,-1.207086577016925730e+03,-1.651852696380508860e+03,-1.558397774149249017e+03,-1.325197139721243730e+03,-9.024542928241971822e+02,9.484992027282714844e+00,2.677215635776519775e-01,-2.677215635776519775e-01,3.080000000000000000e+02
-1.587877293025547260e+03,-1.331711674455797038e+03,-8.000084242256489233e+02,-1.212078655585977685e+03,-1.597025441327779845e+03,-1.494513026073320361e+03,-1.382029877983983170e+03,-8.442987242972121749e+02,9.484992027282714844e+00,2.677215635776519775e-01,-2.677215635776519775e-01,3.090000000000000000e+02
-1.594699291010128945e+03,-1.339238732274032373e+03,-8.174510373797784268e+02,-1.146708592227543704e+03,-1.587784238645355799e+03,-1.496435687314307870e+03,-1.295316775419421901e+03,-8.861786930439375283e+02,9.484992027282714844e+00,2.677215635776519775e-01,-2.677215635776519775e-01,3.100000000000000000e+02
-1.626985772987070959e+03,-1.373674975723617536e+03,-8.651602293740870664e+02,-1.076057125187602651e+03,-1.605454365615492861e+03,-1.527330754635157064e+03,-1.158169618364845519e+03,-9.491791408951503399e+02,9.484992027282714844e+00,2.677215635776519775e-01,-2.677215635776519775e-01,3.110000000000000000e+02
-1.613733664396855602e+03,-1.355775251342798583e+03,-8.613670997467888810e+02,-1.072155603923267336e+03,-1.594053896801553492e+03,-1.510876039065449731e+03,-1.132393746382236714e+03,-9.261462883540771145e+02,9.484992027282714844e+00,2.677215635776519775e-01,-2.677215635776519775e-01,3.120000000000000000e+02
-1.545035669285905897e+03,-1.279784806347535778e+03,-7.927666849025808915e+02,-1.114491450366651407e+03,-1.537860152007273427e+03,-1.437333798606043274e+03,-1.225318199923931388e+03,-8.305618119589198614e+02,9.446745872497558594e+00,2.294756323099136353e-01,-3.059675097465515137e-01,3.130000000000000000e+02
-1.484972689167432691e+03,-1.222709076549999736e+03,-7.334468921217048774e+02,-1.118641989207619190e+03,-1.483424929100670852e+03,-1.376509375596182508e+03,-1.280482831282963161e+03,-7.775390696006252256e+02,9.446745872497558594e+00,2.294756323099136353e-01,-3.059675097465515137e-01,3.140000000000000000e+02
-1.482289211237002746e+03,-1.236388215858365584e+03,-7.432146043369284598e+02,-1.053616008391793002e+03,-1.474855981689834152e+03,-1.381458834495930205e+03,-1.194862219887654646e+03,-8.241991522658172471e+02,9.446745872497558594e+00,2.294756323099136353e-01,-3.059675097465515137e-01,3.150000000000000000e+02
-1.503308322493092419e+03,-1.274037749015427835e+03,-7.858722301569578121e+02,-9.850690396088721172e+02,-1.493024518460399122e+03,-1.416461182135004492e+03,-1.061286284851528762e+03,-8.911856598502745328e+02,9.446745872497558594e+00,2.294756323099136353e-01,-3.059675097465515137e-01,3.160000000000000000e+02
-1.479878863207319228e+03,-1.255568847891041514e+03,-7.806494945134072623e+02,-9.844196789211127907e+02,-1.482787559997475910e+03,-1.406630211692183366e+03,-1.039264825839796686e+03,-8.723513686273254280e+02,9.446745872497558594e+00,2.294756323099136353e-01,-3.059675097465515137e-01,3.170000000000000000e+02
-1.405142810706056480e+03,-1.179495069058026274e+03,-7.143799704747252690e+02,-1.030102459433481272e+03,-1.428859858339536004e+03,-1.340085235302816727e+03,-1.134139245149592170e+03,-7.802447020261315629e+02,9.446745872497558594e+00,2.294756323099136353e-01,-3.059675097465515137e-01,3.180000000000000000e+02
-1.343754111807153095e+03,-1.124337127682349092e+03,-6.585878561540157534e+02,-1.037427974768110289e+03,-1.375698669309353136e+03,-1.283579514955108607e+03,-1.189766426826114184e+03,-7.281997406116024649e+02,9.446745872497558594e+00,2.294756323099136353e-01,-3.059675097465515137e-01,3.190000000000000000e+02
-1.342393518481840147e+03,-1.139259598669228581e+03,-6.694916980462840002e+02,-9.755191876793178380e+02,-1.365472331393160857e+03,-1.290249214334828139e+03,-1.104235026512236800e+03,-7.737732356045780762e+02,9.446745872497558594e+00,2.294756323099136353e-01,-3.059675097465515137e-01,3.200000000000000000e+02
-1.365446776209180825e+03,-1.177501812177804823e+03,-7.107497308607016748e+02,-9.097382774721299938e+02,-1.379612699925350171e+03,-1.325573906870355131e+03,-9.703200866398692597e+02,-8.384446926365635591e+02,9.446745872497558594e+00,2.294756323099136353e-01,-3.059675097465515137e-01,3.210000000000000000e+02
-1.345088508821751020e+03,-1.162597932618824416e+03,-7.045773267831464182e+02,-9.111952002610851196e+02,-1.364198200994262152e+03,-1.314178228127257171e+03,-9.471670774284721119e+02,-8.153243988160866138e+02,9.446745872497558594e+00,2.294756323099136353e-01,-3.059675097465515137e-01,3.220000000000000000e+02
-1.275242527018381224e+03,-1.092841123483776755e+03,-6.391010648558876710e+02,-9.581084681704815011e+02,-1.305215302475840872e+03,-1.244042572887126880e+03,-1.040735624860877579e+03,-7.175955668548413087e+02,9.446745872497558594e+00,2.294756323099136353e-01,-3.059675097465515137e-01,3.230000000000000000e+02
-1.219278468366133893e+03,-1.041407107092552906e+03,-5.844340478649719444e+02,-9.650573375690037210e+02,-1.249589906965520640e+03,-1.183623392298952240e+03,-1.095714220311594545e+03,-6.613230599167254695e+02,9.446745872497558594e+00,2.294756323099136353e-01,-3.059675097465515137e-01,3.240000000000000000e+02
-1.222008899340180506e+03,-1.055043277657605358e+03,-5.960348716413500370e+02,-9.006421177492666175e+02,-1.240520585427530023e+03,-1.187075997563923011e+03,-1.010219856140975025e+03,-7.043818010873437743e+02,9.446745872497558594e+00,2.294756323099136353e-01,-3.059675097465515137e-01,3.250000000000000000e+02
-1.247959612989376183e+03,-1.090517665190898697e+03,-6.383773183570810943e+02,-8.313273964599429746e+02,-1.256575653358686395e+03,-1.219380688685330824e+03,-8.766051329807669390e+02,-7.658533382893074304e+02,9.446745872497558594e+00,2.294756323099136353e-01,-3.059675097465515137e-01,3.260000000000000000e+02
-1.230256866402847663e+03,-1.074156948722684319e+03,-6.342280611784299253e+02,-8.299494106541096698e+02,-1.241319936570769642e+03,-1.205375600424747972e+03,-8.536160983257723274e+02,-7.387313432997798373e+02,9.446745872497558594e+00,2.294756323099136353e-01,-3.059675097465515137e-01,3.270000000000000000e+02
-1.162670043379912386e+03,-1.002885276919801981e+03,-5.718096794972989301e+02,-8.749878656430337287e+02,-1.182282676225484465e+03,-1.133764765617670491e+03,-9.468769989260035800e+02,-6.380933595717397111e+02,9.446745872497558594e+00,2.294756323099136353e-01,-3.059675097465515137e-01,3.280000000000000000e+02
-1.108796796232119959e+03,-9.491389202350765117e+02,-5.214902632463017653e+02,-8.805120870346072479e+02,-1.127936418326185958e+03,-1.072333255457149789e+03,-1.001093322490029095e+03,-5.793931554169757874e+02,9.446745872497558594e+00,2.294756323099136353e-01,-3.059675097465515137e-01,3.290000000000000000e+02
-1.115144355133590579e+03,-9.615591180336559773e+02,-5.382563502363045700e+02,-8.156037353362844442e+02,-1.120009579907837178e+03,-1.074358317602673196e+03,-9.147242689630002133e+02,-6.191295374957662716e+02,9.446745872497558594e+00,2.294756323099136353e-01,-3.059675097465515137e-01,3.300000000000000000e+02
-1.146828435448034725e+03,-9.970258316184663272e+02,-5.853298069241209305e+02,-7.471088259889511392e+02,-1.136846780705818674e+03,-1.105360933713538543e+03,-7.801982206830289215e+02,-6.785110836406165618e+02,9.446745872497558594e+00,2.294756323099136353e-01,-3.059675097465515137e-01,3.310000000000000000e+02
-1.135009558038538671e+03,-9.794482537502299238e+02,-5.849429061652590462e+02,-7.465899478481005644e+02,-1.124541606978062191e+03,-1.090458389334908134e+03,-7.562048302480616258e+02,-6.528476449498994043e+02,9.446745872497558594e+00,2.294756323099136353e-01,-3.059675097465515137e-01,3.320000000000000000e+02
-1.071488573942820949e+03,-9.056106945501305745e+02,-5.252098528306087246e+02,-7.911973930827152799e+02,-1.070517604115044378e+03,-1.017520485770855885e+03,-8.488188997871984611e+02,-5.551437708922021557e+02,9.446745872497558594e+00,2.294756323099136353e-01,-3.059675097465515137e-01,3.330000000000000000e+02
-1.019648788913080352e+03,-8.505543864219580428e+02,-4.755455474062619032e+02,-7.953767713701381581e+02,-1.019768698724266869e+03,-9.546482010833315144e+02,-9.032006452465066104e+02,-4.982413895121644600e+02,9.446745872497558594e+00,2.294756323099136353e-01,-3.059675097465515137e-01,3.340000000000000000e+02
-1.026239024414353480e+03,-8.634833286354842130e+02,-4.906565731115297240e+02,-7.289701857438194565e+02,-1.013460744022893778e+03,-9.567860758821188938e+02,-8.175178459504968487e+02,-5.400034394495851302e+02,9.446745872497558594e+00,2.294756323099136353e-01,-3.059675097465515137e-01,3.350000000000000000e+02
-1.056672544836852467e+03,-8.989562612120171252e+02,-5.358096976073757105e+02,-6.585947014374687569e+02,-1.033125737951228075e+03,-9.897615738703680108e+02,-6.841336547596220043e+02,-6.034583510161464801e+02,9.446745872497558594e+00,2.294756323099136353e-01,-3.059675097465515137e-01,3.360000000000000000e+02
-1.043457852512496174e+03,-8.792444562053060508e+02,-5.349976562681149517e+02,-6.555562177586034522e+02,-1.025773427054969943e+03,-9.776016015035420423e+02,-6.615271050080191344e+02,-5.826889440490740526e+02,9.446745872497558594e+00,2.294756323099136353e-01,-3.059675097465515137e-01,3.370000000000000000e+02
-9.795794110370261478e+02,-8.011886085112200817e+02,-4.751534773964449414e+02,-6.975035163973807357e+02,-9.765254815592343220e+02,-9.080063424233740079e+02,-7.554093054675831809e+02,-4.895627855016064132e+02,9.446745872497558594e+00,2.294756323099136353e-01,-3.059675097465515137e-01,3.380000000000000000e+02
-9.274045523769746069e+02,-7.405705101937419386e+02,-4.238758281541813631e+02,-6.997556376441498287e+02,-9.293955671044241171e+02,-8.495043795441306429e+02,-8.103907437659363495e+02,-4.377906352869576949e+02,9.446745872497558594e+00,2.294756323099136353e-01,-3.059675097465515137e-01,3.390000000000000000e+02
-9.318068478235363727e+02,-7.487891810211331176e+02,-4.358990846558008343e+02,-6.332589515245490475e+02,-9.258769222976698074e+02,-8.564086441386025399e+02,-7.251454353825974977e+02,-4.848678511359685217e+02,9.446745872497558594e+00,2.294756323099136353e-01,-3.059675097465515137e-01,3.400000000000000000e+02
-9.580885823171338416e+02,-7.837025666176996310e+02,-4.763472988772700774e+02,-5.651923154456526390e+02,-9.459856852986267768e+02,-8.936488780244981172e+02,-5.927245441151535488e+02,-5.516678212690385408e+02,9.446745872497558594e+00,2.294756323099136353e-01,-3.059675097465515137e-01,3.410000000000000000e+02
-9.396120528365936480e+02,-7.687968950565773412e+02,-4.678191553971191752e+02,-5.656073297778784763e+02,-9.352685167744930368e+02,-8.852012452884737286e+02,-5.712420374074863503e+02,-5.320202702424357994e+02,9.446745872497558594e+00,2.294756323099136353e-01,-3.059675097465515137e-01,3.420000000000000000e+02
-8.689761987903766567e+02,-6.990889265285659349e+02,-3.982025564697469235e+02,-6.105379176596761681e+02,-8.808009182199020870e+02,-8.187071677594576613e+02,-6.650266869057159056e+02,-4.396182187170088582e+02,9.446745872497558594e+00,2.294756323099136353e-01,-3.059675097465515137e-01,3.430000000000000000e+02
-8.080144275045240647e+02,-6.480139171885457472e+02,-3.396587878744758200e+02,-6.158874214708775980e+02,-8.295712539148225915e+02,-7.622240100050112233e+02,-7.193843260867870413e+02,-3.885902799807627161e+02,9.484992027282714844e+00,2.294756323099136353e-01,-1.912296712398529053e-01,3.440000000000000000e+02
-8.034021166566672036e+02,-6.653011518424100359e+02,-3.501444920131034451e+02,-5.538542318008258007e+02,-8.234482596297457349e+02,-7.701359427862771554e+02,-6.348481817626452539e+02,-4.353148444972648576e+02,9.484992027282714844e+00,2.294756323099136353e-01,-1.912296712398529053e-01,3.450000000000000000e+02
-8.234856722207696293e+02,-7.073721052209875779e+02,-3.934475636492643389e+02,-4.907151414485124405e+02,-8.415127069678783300e+02,-8.080677325955184642e+02,-5.043324421667057322e+02,-5.005625896547717275e+02,9.484992027282714844e+00,2.294756323099136353e-01,-1.912296712398529053e-01,3.460000000000000000e+02
-8.028939552221127087e+02,-6.974400113732554018e+02,-3.895869392098611570e+02,-4.954431858843890950e+02,-8.292395997920466471e+02,-8.005915630810341099e+02,-4.843333411506755510e+02,-4.788079402330768062e+02,9.484992027282714844e+00,2.294756323099136353e-01,-1.912296712398529053e-01,3.470000000000000000e+02
-7.339359038605980459e+02,-6.316996613099909155e+02,-3.255898383512394503e+02,-5.452407300697523169e+02,-7.737327952907508006e+02,-7.354634790906929993e+02,-5.788106718487397302e+02,-3.835125351398164639e+02,9.484992027282714844e+00,2.294756323099136353e-01,-1.912296712398529053e-01,3.480000000000000000e+02
-6.787064618449367117e+02,-5.839498451927938731e+02,-2.726601528130122460e+02,-5.563313776260401937e+02,-7.219074285778115154e+02,-6.798207044684386346e+02,-6.336761545718618436e+02,-3.286056003309495281e+02,9.484992027282714844e+00,2.294756323099136353e-01,-1.912296712398529053e-01,3.490000000000000000e+02
-6.835280428616606514e+02,-6.026638409965453320e+02,-2.866786064145926503e+02,-4.981647434574915678e+02,-7.165732943740149494e+02,-6.863988061409836519e+02,-5.493065791809567600e+02,-3.715448045276207267e+02,9.484992027282714844e+00,2.294756323099136353e-01,-1.912296712398529053e-01,3.500000000000000000e+02
-7.135065710140188457e+02,-6.437518888316408265e+02,-3.309121203358954517e+02,-4.354489822657487821e+02,-7.374833508175506722e+02,-7.207846274143375922e+02,-4.184208374792287941e+02,-4.342215253863396356e+02,9.484992027282714844e+00,2.294756323099136353e-01,-1.912296712398529053e-01,3.510000000000000000e+02
-6.997334097048515105e+02,-6.316999207936678431e+02,-3.275137605099225766e+02,-4.391686458259136998e+02,-7.286292194959532935e+02,-7.099851371736876899e+02,-3.983555308052382316e+02,-4.110159985144782695e+02,9.484992027282714844e+00,2.294756323099136353e-01,-1.912296712398529053e-01,3.520000000000000000e+02
-6.348303454478882486e+02,-5.639142946331485291e+02,-2.655375397332973080e+02,-4.877330895608101855e+02,-6.753063285319803981e+02,-6.436799990665895166e+02,-4.937559959091886412e+02,-3.150172274062424549e+02,9.484992027282714844e+00,2.294756323099136353e-01,-1.912296712398529053e-01,3.530000000000000000e+02
-5.830709306722492329e+02,-5.142373286496949731e+02,-2.161590341861010529e+02,-4.960326677110570017e+02,-6.245260028172706370e+02,-5.883977050685643917e+02,-5.502134914982307237e+02,-2.603643136639802833e+02,9.484992027282714844e+00,2.294756323099136353e-01,-1.912296712398529053e-01,3.540000000000000000e+02
-5.905054009203449823e+02,-5.309422455518579227e+02,-2.341318495176456054e+02,-4.341148726663886919e+02,-6.194724915531478473e+02,-5.956905976586567704e+02,-4.678050622215232579e+02,-3.043144515110616339e+02,9.484992027282714844e+00,2.294756323099136353e-01,-1.912296712398529053e-01,3.550000000000000000e+02
-6.214125722640965250e+02,-5.702526562372440821e+02,-2.815624309428094421e+02,-3.697737614484722144e+02,-6.393481040333062992e+02,-6.308555662148355623e+02,-3.392639663550071418e+02,-3.676525955331962905e+02,9.484992027282714844e+00,2.294756323099136353e-01,-1.912296712398529053e-01,3.560000000000000000e+02
-6.090319226273131790e+02,-5.569541795770273893e+02,-2.797333726532888249e+02,-3.743087044678613893e+02,-6.292060286604100838e+02,-6.206096643465934903e+02,-3.213002190686311224e+02,-3.446333296766752028e+02,9.484992027282714844e+00,2.294756323099136353e-01,-1.912296712398529053e-01,3.570000000000000000e+02
-5.477284986493905308e+02,-4.877885111798241269e+02,-2.179843495769964647e+02,-4.230871533490135334e+02,-5.774636055578157539e+02,-5.547309322547152988e+02,-4.175409947279040352e+02,-2.503857699513901025e+02,9.484992027282714844e+00,2.294756323099136353e-01,-1.912296712398529053e-01,3.580000000000000000e+02
-4.993687296297066496e+02,-4.352819011097599287e+02,-1.691812366031808779e+02,-4.295334734030184336e+02,-5.321029526708880439e+02,-5.010279724060092121e+02,-4.733867430821846938e+02,-2.004279758402699372e+02,9.484992027282714844e+00,2.294756323099136353e-01,-1.912296712398529053e-01,3.590000000000000000e+02
-5.080217490017530508e+02,-4.476574656144148321e+02,-1.895534868180766352e+02,-3.646293265902349958e+02,-5.337448150349882781e+02,-5.114554594592482317e+02,-3.895984277906682109e+02,-2.498516649269295158e+02,9.484992027282714844e+00,2.294756323099136353e-01,-1.912296712398529053e-01,3.600000000000000000e+02
-5.406351759250974283e+02,-4.827909140184710850e+02,-2.410111923247022787e+02,-2.964458879273006460e+02,-5.597856553914753022e+02,-5.497411542371773976e+02,-2.601446882644522702e+02,-3.166899457398758386e+02,9.484992027282714844e+00,2.294756323099136353e-01,-1.912296712398529053e-01,3.610000000000000000e+02
-5.325443342837970704e+02,-4.663526105910495971e+02,-2.434355970050310134e+02,-2.964689413697196869e+02,-5.560269078942073975e+02,-5.420073627420351841e+02,-2.414645628912112443e+02,-2.963488695637715864e+02,9.484992027282714844e+00,2.294756323099136353e-01,-1.912296712398529053e-01,3.620000000000000000e+02
-4.750212564722969546e+02,-3.944003456877107965e+02,-1.845809517921297811e+02,-3.421359731111151632e+02,-5.105034928780805785e+02,-4.793546930119773606e+02,-3.372006879723485326e+02,-2.064270562885285472e+02,9.484992027282714844e+00,2.294756323099136353e-01,-1.912296712398529053e-01,3.630000000000000000e+02
-4.267138784284470603e+02,-3.398949510507227387e+02,-1.360018813545830199e+02,-3.484923653999358066e+02,-4.686877020470565185e+02,-4.293771806231379742e+02,-3.929707364136993419e+02,-1.610076368056616047e+02,9.484992027282714844e+00,2.294756323099136353e-01,-1.912296712398529053e-01,3.640000000000000000e+02
-4.327471046780774486e+02,-3.527750977681862423e+02,-1.536018736250625807e+02,-2.852533327761993860e+02,-4.709024937105932622e+02,-4.420578144439277821e+02,-3.103659109181171516e+02,-2.125884568401233992e+02,9.446745872497558594e+00,1.912296712398529053e-01,-2.294756323099136353e-01,3.650000000000000000e+02
-4.613356809528049780e+02,-3.905505048897321103e+02,-2.007039994777223910e+02,-2.187651323490426876e+02,-4.976023424014856573e+02,-4.815409145318990340e+02,-1.830732989443495171e+02,-2.811230710271702264e+02,9.446745872497558594e+00,1.912296712398529053e-01,-2.294756323099136353e-01,3.660000000000000000e+02
-4.468066690153136733e+02,-3.770380142910289578e+02,-1.993012297927270993e+02,-2.208753006546467077e+02,-4.960973812438896857e+02,-4.763288759523784393e+02,-1.670700856230105273e+02,-2.649357265622384148e+02,9.446745872497558594e+00,1.912296712398529053e-01,-2.294756323099136353e-01,3.670000000000000000e+02
-3.814098920695105335e+02,-3.088939126121549634e+02,-1.376318773818784393e+02,-2.699639405676498427e+02,-4.521360974869458005e+02,-4.171350468252639985e+02,-2.651645064955373527e+02,-1.791360465549514629e+02,9.446745872497558594e+00,1.912296712398529053e-01,-2.294756323099136353e-01,3.680000000000000000e+02
-3.276318028789319214e+02,-2.605679948053293629e+02,-8.592881794308777899e+01,-2.809489708609762602e+02,-4.092546629415301140e+02,-3.691121665254104300e+02,-3.235260045195900602e+02,-1.338674847175279865e+02,9.446745872497558594e+00,1.912296712398529053e-01,-2.294756323099136353e-01,3.690000000000000000e+02
-3.321698211623661336e+02,-2.800319744622538565e+02,-9.983589194344676798e+01,-2.230657200253554038e+02,-4.088860377877426799e+02,-3.825191382142220391e+02,-2.438588011318788631e+02,-1.832133182280231267e+02,9.446745872497558594e+00,1.912296712398529053e-01,-2.294756323099136353e-01,3.700000000000000000e+02
-3.614925306416771491e+02,-3.220340412617661059e+02,-1.449702616105569177e+02,-1.620247304256699863e+02,-4.327724743829312501e+02,-4.234886604248531512e+02,-1.181320382595004048e+02,-2.506442984828026965e+02,9.446745872497558594e+00,1.912296712398529053e-01,-2.294756323099136353e-01,3.710000000000000000e+02
-3.488794936731428606e+02,-3.117164712155790767e+02,-1.452314555801785900e+02,-1.683673461297730682e+02,-4.278022139989552670e+02,-4.199297541715204716e+02,-1.012696143892098917e+02,-2.336385045747665572e+02,9.446745872497558594e+00,1.912296712398529053e-01,-2.294756323099136353e-01,3.720000000000000000e+02
-2.868236083024312393e+02,-2.481252191703388235e+02,-8.739958522370579885e+01,-2.197000952662638156e+02,-3.802115978669098695e+02,-3.609372033809122513e+02,-1.977051567131711636e+02,-1.454145431409779121e+02,9.446745872497558594e+00,1.912296712398529053e-01,-2.294756323099136353e-01,3.730000000000000000e+02
-2.371791100708287559e+02,-2.046244736278094933e+02,-3.898232989468669984e+01,-2.319560496469130157e+02,-3.358802275376874604e+02,-3.127798074943930260e+02,-2.554750892998708878e+02,-9.770124249118816806e+01,9.446745872497558594e+00,1.912296712398529053e-01,-2.294756323099136353e-01,3.740000000000000000e+02
-2.459865869921923149e+02,-2.276820491417965968e+02,-5.515932285599410534e+01,-1.757973487942654174e+02,-3.368293738884094637e+02,-3.272716185226527159e+02,-1.760398867511685239e+02,-1.456905076030452619e+02,9.446745872497558594e+00,1.912296712398529053e-01,-2.294756323099136353e-01,3.750000000000000000e+02
-2.801963796053023543e+02,-2.732113707388707553e+02,-1.023586638254491845e+02,-1.169958214028447401e+02,-3.622308168240560917e+02,-3.690301047606699285e+02,-5.066159652265196200e+01,-2.106690625575429294e+02,9.446745872497558594e+00,1.912296712398529053e-01,-2.294756323099136353e-01,3.760000000000000000e+02
-2.730667496154128457e+02,-2.664231720377574675e+02,-1.040920148496006732e+02,-1.252062285667125252e+02,-3.573887387088470859e+02,-3.640263808695672196e+02,-3.455834176270582248e+01,-1.896157827879796969e+02,9.446745872497558594e+00,1.912296712398529053e-01,-2.294756323099136353e-01,3.770000000000000000e+02
-2.163429882721320610e+02,-2.038372979713967652e+02,-4.705132127527758712e+01,-1.772925990516960155e+02,-3.104130133809376275e+02,-3.023531919630331686e+02,-1.322095639756153105e+02,-9.862417059426661581e+01,9.446745872497558594e+00,1.912296712398529053e-01,-2.294756323099136353e-01,3.780000000000000000e+02
-1.717869332509581000e+02,-1.587704625900296378e+02,-5.046484196791425347e-01,-1.888887671842312557e+02,-2.687898657510522753e+02,-2.519029828726415872e+02,-1.908002069267095067e+02,-5.015437686401128303e+01,9.446745872497558594e+00,1.912296712398529053e-01,-2.294756323099136353e-01,3.790000000000000000e+02
-1.846903698134774459e+02,-1.810439848709356738e+02,-2.018145470021408983e+01,-1.310423419499493320e+02,-2.728032383795871283e+02,-2.642181478710554074e+02,-1.119207832094107289e+02,-9.718928949414839735e+01,9.446745872497558594e+00,1.912296712398529053e-01,-2.294756323099136353e-01,3.800000000000000000e+02
-2.202582072112491005e+02,-2.274946081723610405e+02,-7.011829035168193514e+01,-7.038704664345277706e+01,-2.995322012399992673e+02,-3.037234172984462930e+02,1.217028160032350570e+01,-1.610751947317476152e+02,9.446745872497558594e+00,1.912296712398529053e-01,-2.294756323099136353e-01,3.810000000000000000e+02
-2.128635726229549618e+02,-2.205646992538022459e+02,-7.247136826628411654e+01,-7.719642378757271217e+01,-2.946452826181339333e+02,-2.971077017734714900e+02,2.515603105050104205e+01,-1.402860982622369193e+02,9.446745872497558594e+00,1.912296712398529053e-01,-2.294756323099136353e-01,3.820000000000000000e+02
-1.590223535506447661e+02,-1.566028590055211680e+02,-1.637108439264557092e+01,-1.277275859097935609e+02,-2.476995055929946830e+02,-2.347906401943619130e+02,-7.444188441023288760e+01,-4.958469885291560786e+01,9.446745872497558594e+00,1.912296712398529053e-01,-2.294756323099136353e-01,3.830000000000000000e+02
-1.201871114746463718e+02,-1.110093500470757135e+02,2.805397293140413240e+01,-1.380576816280517960e+02,-2.054361829370391206e+02,-1.838133197737115552e+02,-1.337095670350536238e+02,6.718909691699082032e-01,9.446745872497558594e+00,1.912296712398529053e-01,-2.294756323099136353e-01,3.840000000000000000e+02
-1.357441463920986280e+02,-1.337220260191388661e+02,7.776910642256552819e+00,-8.001070121466909768e+01,-2.078782293410622515e+02,-1.967516188224617508e+02,-5.568855070254357997e+01,-4.502759722990595037e+01,9.446745872497558594e+00,1.912296712398529053e-01,-2.294756323099136353e-01,3.850000000000000000e+02
-1.691490522467283881e+02,-1.800464283082401380e+02,-3.984792433977418113e+01,-1.970859597274102271e+01,-2.339682862709887559e+02,-2.399089588393107988e+02,6.666269792313687503e+01,-1.113507754408128676e+02,9.446745872497558594e+00,1.912296712398529053e-01,-2.294756323099136353e-01,3.860000000000000000e+02
-1.595755403377479524e+02,-1.733125775493244873e+02,-3.908779031855374342e+01,-2.613599431024340447e+01,-2.305248605461019906e+02,-2.394102709452345152e+02,7.925944840468582697e+01,-9.514294378354679793e+01,9.446745872497558594e+00,1.912296712398529053e-01,-2.294756323099136353e-01,3.870000000000000000e+02
-1.042459858395304764e+02,-1.106350109884660924e+02,2.038209090675809421e+01,-7.655964205971395131e+01,-1.849555357539284159e+02,-1.826537393352118670e+02,-2.009608457043941598e+01,-7.759699845846625976e+00,9.446745872497558594e+00,1.912296712398529053e-01,-2.294756323099136353e-01,3.880000000000000000e+02
-6.099121346422180068e+01,-6.518454693326930283e+01,6.952444925637973938e+01,-8.814637084284913726e+01,-1.429347636356760631e+02,-1.355806793279989506e+02,-7.854758941961335950e+01,3.955398494721157476e+01,9.446745872497558594e+00,1.912296712398529053e-01,-2.294756323099136353e-01,3.890000000000000000e+02
-7.056959010849823244e+01,-8.419024711962993024e+01,5.385994484567345353e+01,-3.162845004277187400e+01,-1.459397126768599264e+02,-1.507825995180974132e+02,3.797995399218052626e-01,-1.024046682189509738e+01,9.484992027282714844e+00,1.912296712398529053e-01,-1.912296712398529053e-01,3.900000000000000000e+02
-1.020989032436773414e+02,-1.247912823256920092e+02,7.601410779803700279e+00,2.892304566575330682e+01,-1.736534347026317846e+02,-1.937092323299511918e+02,1.229617522611224558e+02,-7.974645378666173201e+01,9.484992027282714844e+00,1.912296712398529053e-01,-1.912296712398529053e-01,3.910000000000000000e+02
-9.401873996093490859e+01,-1.142954531446303008e+02,6.709259948154794984e+00,2.447552843087032670e+01,-1.716574606051872252e+02,-1.903166314160480397e+02,1.344914986404037336e+02,-6.415115251317183720e+01,9.484992027282714844e+00,1.912296712398529053e-01,-1.912296712398529053e-01,3.920000000000000000e+02
